#timebase=1136082944(ps)
,#voltbase=5000000(uV)
#size=4064
4.00000E-03,0.000
8.00000E-03,0.000
1.20000E-02,0.000
1.60000E-02,0.000
2.00000E-02,-0.200
2.40000E-02,0.000
2.80000E-02,0.000
3.20000E-02,0.000
3.60000E-02,0.000
4.00000E-02,0.200
4.40000E-02,0.200
4.80000E-02,0.200
5.20000E-02,0.200
5.60000E-02,-0.200
6.00000E-02,0.000
6.40000E-02,0.000
6.80000E-02,0.000
7.20000E-02,-0.200
7.60000E-02,0.000
8.00000E-02,0.000
8.40000E-02,0.000
8.80000E-02,0.000
9.20000E-02,0.000
9.60000E-02,-0.200
1.00000E-01,-0.200
1.04000E-01,0.000
1.08000E-01,0.200
1.12000E-01,0.200
1.16000E-01,0.200
1.20000E-01,0.200
1.24000E-01,0.200
1.28000E-01,-0.200
1.32000E-01,-0.200
1.36000E-01,0.000
1.40000E-01,-0.200
1.44000E-01,0.000
1.48000E-01,-0.200
1.52000E-01,-0.200
1.56000E-01,0.000
1.60000E-01,-0.200
1.64000E-01,0.000
1.68000E-01,0.000
1.72000E-01,0.000
1.76000E-01,0.000
1.80000E-01,0.000
1.84000E-01,0.000
1.88000E-01,0.000
1.92000E-01,0.200
1.96000E-01,-0.200
2.00000E-01,-0.200
2.04000E-01,0.000
2.08000E-01,-0.200
2.12000E-01,-0.200
2.16000E-01,0.000
2.20000E-01,-0.200
2.24000E-01,0.000
2.28000E-01,0.000
2.32000E-01,0.000
2.36000E-01,0.000
2.40000E-01,-0.200
2.44000E-01,-0.200
2.48000E-01,0.000
2.52000E-01,-0.200
2.56000E-01,0.000
2.60000E-01,0.000
2.64000E-01,0.000
2.68000E-01,0.000
2.72000E-01,0.000
2.76000E-01,-0.200
2.80000E-01,0.000
2.84000E-01,0.200
2.88000E-01,0.000
2.92000E-01,-0.200
2.96000E-01,0.000
3.00000E-01,0.000
3.04000E-01,0.000
3.08000E-01,0.200
3.12000E-01,-0.200
3.16000E-01,-0.200
3.20000E-01,0.000
3.24000E-01,-0.200
3.28000E-01,0.000
3.32000E-01,0.000
3.36000E-01,0.000
3.40000E-01,0.000
3.44000E-01,0.000
3.48000E-01,0.000
3.52000E-01,0.000
3.56000E-01,0.000
3.60000E-01,-0.200
3.64000E-01,0.000
3.68000E-01,0.000
3.72000E-01,-0.200
3.76000E-01,0.000
3.80000E-01,0.200
3.84000E-01,0.200
3.88000E-01,-0.200
3.92000E-01,0.000
3.96000E-01,0.000
4.00000E-01,0.000
4.04000E-01,0.000
4.08000E-01,0.000
4.12000E-01,0.000
4.16000E-01,0.000
4.20000E-01,0.000
4.24000E-01,0.000
4.28000E-01,0.000
4.32000E-01,0.000
4.36000E-01,0.000
4.40000E-01,0.000
4.44000E-01,0.200
4.48000E-01,-0.200
4.52000E-01,-0.200
4.56000E-01,0.000
4.60000E-01,0.200
4.64000E-01,0.200
4.68000E-01,-0.200
4.72000E-01,0.000
4.76000E-01,0.000
4.80000E-01,0.000
4.84000E-01,0.000
4.88000E-01,0.000
4.92000E-01,-0.200
4.96000E-01,-0.200
5.00000E-01,0.000
5.04000E-01,0.200
5.08000E-01,-0.200
5.12000E-01,0.000
5.16000E-01,0.000
5.20000E-01,0.000
5.24000E-01,-0.200
5.28000E-01,0.000
5.32000E-01,-0.200
5.36000E-01,0.000
5.40000E-01,0.200
5.44000E-01,-0.200
5.48000E-01,-0.200
5.52000E-01,0.000
5.56000E-01,-0.200
5.60000E-01,-0.200
5.64000E-01,0.000
5.68000E-01,0.200
5.72000E-01,0.200
5.76000E-01,-0.200
5.80000E-01,-0.200
5.84000E-01,0.000
5.88000E-01,-0.200
5.92000E-01,0.000
5.96000E-01,0.200
6.00000E-01,-0.200
6.04000E-01,0.000
6.08000E-01,0.000
6.12000E-01,0.000
6.16000E-01,0.000
6.20000E-01,0.200
6.24000E-01,0.000
6.28000E-01,0.000
6.32000E-01,0.000
6.36000E-01,0.000
6.40000E-01,-0.200
6.44000E-01,-0.200
6.48000E-01,0.000
6.52000E-01,0.000
6.56000E-01,0.000
6.60000E-01,0.000
6.64000E-01,0.000
6.68000E-01,0.200
6.72000E-01,-0.200
6.76000E-01,0.000
6.80000E-01,0.000
6.84000E-01,0.000
6.88000E-01,0.200
6.92000E-01,0.200
6.96000E-01,0.000
7.00000E-01,0.000
7.04000E-01,0.000
7.08000E-01,0.000
7.12000E-01,0.000
7.16000E-01,0.000
7.20000E-01,0.000
7.24000E-01,0.000
7.28000E-01,0.000
7.32000E-01,-0.200
7.36000E-01,0.000
7.40000E-01,-0.200
7.44000E-01,-0.200
7.48000E-01,0.000
7.52000E-01,0.200
7.56000E-01,-0.200
7.60000E-01,-0.200
7.64000E-01,0.000
7.68000E-01,0.000
7.72000E-01,0.000
7.76000E-01,0.000
7.80000E-01,0.000
7.84000E-01,0.000
7.88000E-01,0.000
7.92000E-01,0.000
7.96000E-01,0.000
8.00000E-01,0.000
8.04000E-01,0.200
8.08000E-01,-0.200
8.12000E-01,0.000
8.16000E-01,0.000
8.20000E-01,0.000
8.24000E-01,0.000
8.28000E-01,0.000
8.32000E-01,-0.200
8.36000E-01,-0.200
8.40000E-01,0.000
8.44000E-01,-0.200
8.48000E-01,0.000
8.52000E-01,-0.200
8.56000E-01,0.000
8.60000E-01,0.000
8.64000E-01,0.000
8.68000E-01,0.000
8.72000E-01,-0.200
8.76000E-01,0.000
8.80000E-01,0.200
8.84000E-01,0.200
8.88000E-01,0.200
8.92000E-01,0.200
8.96000E-01,0.200
9.00000E-01,0.200
9.04000E-01,0.200
9.08000E-01,0.000
9.12000E-01,-0.200
9.16000E-01,0.000
9.20000E-01,0.000
9.24000E-01,0.000
9.28000E-01,0.000
9.32000E-01,0.000
9.36000E-01,0.000
9.40000E-01,0.000
9.44000E-01,0.000
9.48000E-01,0.000
9.52000E-01,0.000
9.56000E-01,0.000
9.60000E-01,0.000
9.64000E-01,0.000
9.68000E-01,0.000
9.72000E-01,0.000
9.76000E-01,0.000
9.80000E-01,0.000
9.84000E-01,0.000
9.88000E-01,0.000
9.92000E-01,-0.200
9.96000E-01,0.000
1.00000E+00,0.000
1.00400E+00,0.000
1.00800E+00,0.000
1.01200E+00,-0.200
1.01600E+00,-0.200
1.02000E+00,0.000
1.02400E+00,0.000
1.02800E+00,0.000
1.03200E+00,0.000
1.03600E+00,0.200
1.04000E+00,-0.200
1.04400E+00,-0.200
1.04800E+00,0.000
1.05200E+00,0.000
1.05600E+00,0.000
1.06000E+00,0.000
1.06400E+00,0.200
1.06800E+00,0.000
1.07200E+00,-0.200
1.07600E+00,0.000
1.08000E+00,0.200
1.08400E+00,-0.200
1.08800E+00,-0.200
1.09200E+00,0.000
1.09600E+00,0.200
1.10000E+00,0.000
1.10400E+00,0.000
1.10800E+00,0.200
1.11200E+00,-0.200
1.11600E+00,-0.200
1.12000E+00,0.000
1.12400E+00,0.200
1.12800E+00,0.200
1.13200E+00,0.200
1.13600E+00,-0.200
1.14000E+00,0.000
1.14400E+00,0.000
1.14800E+00,0.000
1.15200E+00,0.200
1.15600E+00,-0.200
1.16000E+00,-0.200
1.16400E+00,0.000
1.16800E+00,0.200
1.17200E+00,-0.200
1.17600E+00,-0.200
1.18000E+00,0.000
1.18400E+00,0.200
1.18800E+00,0.200
1.19200E+00,-0.200
1.19600E+00,-0.200
1.20000E+00,0.000
1.20400E+00,-0.200
1.20800E+00,0.000
1.21200E+00,0.200
1.21600E+00,0.200
1.22000E+00,0.200
1.22400E+00,0.200
1.22800E+00,0.200
1.23200E+00,-0.200
1.23600E+00,0.000
1.24000E+00,0.000
1.24400E+00,0.000
1.24800E+00,0.000
1.25200E+00,0.000
1.25600E+00,-0.200
1.26000E+00,0.000
1.26400E+00,0.000
1.26800E+00,0.000
1.27200E+00,0.000
1.27600E+00,0.000
1.28000E+00,0.000
1.28400E+00,-0.200
1.28800E+00,-0.200
1.29200E+00,0.000
1.29600E+00,-0.200
1.30000E+00,0.000
1.30400E+00,-0.200
1.30800E+00,0.000
1.31200E+00,0.000
1.31600E+00,0.000
1.32000E+00,0.000
1.32400E+00,0.000
1.32800E+00,0.000
1.33200E+00,-0.200
1.33600E+00,0.000
1.34000E+00,0.200
1.34400E+00,0.200
1.34800E+00,0.200
1.35200E+00,0.200
1.35600E+00,-0.200
1.36000E+00,0.000
1.36400E+00,0.000
1.36800E+00,0.000
1.37200E+00,0.000
1.37600E+00,0.200
1.38000E+00,0.000
1.38400E+00,0.000
1.38800E+00,0.000
1.39200E+00,0.000
1.39600E+00,0.000
1.40000E+00,-0.200
1.40400E+00,0.000
1.40800E+00,0.000
1.41200E+00,0.000
1.41600E+00,0.000
1.42000E+00,0.000
1.42400E+00,0.000
1.42800E+00,0.200
1.43200E+00,0.200
1.43600E+00,0.200
1.44000E+00,0.200
1.44400E+00,-0.200
1.44800E+00,-0.200
1.45200E+00,0.000
1.45600E+00,-0.200
1.46000E+00,0.000
1.46400E+00,0.000
1.46800E+00,0.000
1.47200E+00,0.000
1.47600E+00,-0.200
1.48000E+00,0.000
1.48400E+00,-0.200
1.48800E+00,-0.200
1.49200E+00,0.000
1.49600E+00,-0.200
1.50000E+00,0.000
1.50400E+00,-0.200
1.50800E+00,0.000
1.51200E+00,-0.200
1.51600E+00,-0.200
1.52000E+00,0.000
1.52400E+00,0.000
1.52800E+00,0.000
1.53200E+00,0.000
1.53600E+00,-0.200
1.54000E+00,0.000
1.54400E+00,-0.200
1.54800E+00,0.000
1.55200E+00,0.000
1.55600E+00,0.000
1.56000E+00,-0.200
1.56400E+00,-0.200
1.56800E+00,0.000
1.57200E+00,-0.200
1.57600E+00,0.000
1.58000E+00,-0.200
1.58400E+00,0.000
1.58800E+00,-0.200
1.59200E+00,0.000
1.59600E+00,-0.200
1.60000E+00,0.000
1.60400E+00,0.000
1.60800E+00,0.000
1.61200E+00,0.000
1.61600E+00,0.200
1.62000E+00,-0.200
1.62400E+00,0.000
1.62800E+00,0.000
1.63200E+00,0.000
1.63600E+00,0.000
1.64000E+00,0.000
1.64400E+00,0.200
1.64800E+00,0.200
1.65200E+00,-0.200
1.65600E+00,0.000
1.66000E+00,0.000
1.66400E+00,0.000
1.66800E+00,0.000
1.67200E+00,0.000
1.67600E+00,0.000
1.68000E+00,0.000
1.68400E+00,-0.200
1.68800E+00,0.000
1.69200E+00,-0.200
1.69600E+00,0.000
1.70000E+00,-0.200
1.70400E+00,0.000
1.70800E+00,-0.200
1.71200E+00,0.000
1.71600E+00,-0.200
1.72000E+00,0.000
1.72400E+00,0.000
1.72800E+00,0.000
1.73200E+00,0.000
1.73600E+00,0.000
1.74000E+00,0.000
1.74400E+00,0.000
1.74800E+00,0.000
1.75200E+00,0.000
1.75600E+00,0.000
1.76000E+00,0.000
1.76400E+00,-0.200
1.76800E+00,-0.200
1.77200E+00,0.000
1.77600E+00,-0.200
1.78000E+00,0.000
1.78400E+00,0.000
1.78800E+00,0.000
1.79200E+00,0.000
1.79600E+00,-0.200
1.80000E+00,0.000
1.80400E+00,0.200
1.80800E+00,0.200
1.81200E+00,0.200
1.81600E+00,0.200
1.82000E+00,0.200
1.82400E+00,-0.200
1.82800E+00,-0.200
1.83200E+00,0.000
1.83600E+00,-0.200
1.84000E+00,-0.200
1.84400E+00,0.000
1.84800E+00,0.000
1.85200E+00,0.000
1.85600E+00,0.000
1.86000E+00,0.000
1.86400E+00,0.000
1.86800E+00,0.000
1.87200E+00,0.000
1.87600E+00,-0.200
1.88000E+00,0.000
1.88400E+00,0.000
1.88800E+00,0.000
1.89200E+00,0.000
1.89600E+00,0.000
1.90000E+00,0.000
1.90400E+00,0.000
1.90800E+00,0.200
1.91200E+00,-0.200
1.91600E+00,0.000
1.92000E+00,0.000
1.92400E+00,0.000
1.92800E+00,0.200
1.93200E+00,0.200
1.93600E+00,-0.200
1.94000E+00,0.000
1.94400E+00,0.200
1.94800E+00,0.000
1.95200E+00,0.000
1.95600E+00,-0.200
1.96000E+00,0.000
1.96400E+00,0.000
1.96800E+00,0.000
1.97200E+00,-0.200
1.97600E+00,0.000
1.98000E+00,-0.200
1.98400E+00,-0.200
1.98800E+00,0.000
1.99200E+00,0.000
1.99600E+00,0.000
2.00000E+00,0.000
2.00400E+00,0.000
2.00800E+00,0.000
2.01200E+00,0.000
2.01600E+00,0.000
2.02000E+00,-0.200
2.02400E+00,-0.200
2.02800E+00,0.000
2.03200E+00,-0.200
2.03600E+00,0.000
2.04000E+00,0.000
2.04400E+00,0.000
2.04800E+00,0.000
2.05200E+00,0.200
2.05600E+00,-0.200
2.06000E+00,-0.200
2.06400E+00,0.000
2.06800E+00,-0.200
2.07200E+00,0.000
2.07600E+00,0.200
2.08000E+00,-0.200
2.08400E+00,-0.200
2.08800E+00,0.000
2.09200E+00,0.200
2.09600E+00,0.200
2.10000E+00,-0.200
2.10400E+00,-0.200
2.10800E+00,0.000
2.11200E+00,-0.200
2.11600E+00,0.000
2.12000E+00,-0.200
2.12400E+00,-0.200
2.12800E+00,0.000
2.13200E+00,0.200
2.13600E+00,0.200
2.14000E+00,-0.200
2.14400E+00,0.000
2.14800E+00,1.200
2.15200E+00,2.200
2.15600E+00,3.200
2.16000E+00,4.000
2.16400E+00,4.600
2.16800E+00,5.200
2.17200E+00,6.000
2.17600E+00,6.200
2.18000E+00,6.600
2.18400E+00,7.000
2.18800E+00,7.400
2.19200E+00,7.600
2.19600E+00,7.800
2.20000E+00,8.000
2.20400E+00,8.000
2.20800E+00,8.400
2.21200E+00,8.600
2.21600E+00,8.400
2.22000E+00,8.800
2.22400E+00,8.800
2.22800E+00,9.000
2.23200E+00,9.000
2.23600E+00,9.000
2.24000E+00,9.200
2.24400E+00,9.200
2.24800E+00,9.200
2.25200E+00,9.400
2.25600E+00,9.400
2.26000E+00,9.400
2.26400E+00,9.200
2.26800E+00,9.400
2.27200E+00,9.400
2.27600E+00,9.600
2.28000E+00,9.400
2.28400E+00,9.600
2.28800E+00,9.600
2.29200E+00,9.600
2.29600E+00,9.600
2.30000E+00,9.600
2.30400E+00,10.000
2.30800E+00,9.800
2.31200E+00,10.000
2.31600E+00,9.600
2.32000E+00,9.800
2.32400E+00,9.800
2.32800E+00,9.800
2.33200E+00,10.200
2.33600E+00,10.000
2.34000E+00,9.800
2.34400E+00,9.800
2.34800E+00,10.000
2.35200E+00,10.200
2.35600E+00,10.000
2.36000E+00,9.800
2.36400E+00,10.000
2.36800E+00,10.000
2.37200E+00,10.200
2.37600E+00,10.200
2.38000E+00,10.000
2.38400E+00,10.000
2.38800E+00,9.800
2.39200E+00,10.200
2.39600E+00,10.400
2.40000E+00,10.200
2.40400E+00,10.400
2.40800E+00,10.400
2.41200E+00,10.200
2.41600E+00,10.400
2.42000E+00,10.200
2.42400E+00,10.400
2.42800E+00,10.200
2.43200E+00,10.400
2.43600E+00,10.400
2.44000E+00,10.200
2.44400E+00,10.400
2.44800E+00,10.200
2.45200E+00,10.400
2.45600E+00,10.200
2.46000E+00,10.200
2.46400E+00,10.000
2.46800E+00,10.200
2.47200E+00,10.400
2.47600E+00,10.200
2.48000E+00,10.000
2.48400E+00,10.200
2.48800E+00,10.200
2.49200E+00,10.000
2.49600E+00,10.200
2.50000E+00,10.200
2.50400E+00,10.400
2.50800E+00,10.200
2.51200E+00,10.200
2.51600E+00,10.000
2.52000E+00,10.200
2.52400E+00,10.200
2.52800E+00,10.400
2.53200E+00,10.600
2.53600E+00,10.200
2.54000E+00,10.600
2.54400E+00,10.200
2.54800E+00,10.000
2.55200E+00,10.400
2.55600E+00,10.200
2.56000E+00,10.200
2.56400E+00,10.400
2.56800E+00,10.200
2.57200E+00,10.200
2.57600E+00,10.600
2.58000E+00,10.200
2.58400E+00,10.000
2.58800E+00,10.400
2.59200E+00,10.400
2.59600E+00,10.200
2.60000E+00,10.400
2.60400E+00,10.600
2.60800E+00,10.400
2.61200E+00,10.400
2.61600E+00,10.200
2.62000E+00,10.400
2.62400E+00,10.600
2.62800E+00,10.400
2.63200E+00,10.400
2.63600E+00,10.400
2.64000E+00,10.400
2.64400E+00,10.400
2.64800E+00,10.600
2.65200E+00,10.400
2.65600E+00,10.400
2.66000E+00,10.400
2.66400E+00,10.600
2.66800E+00,10.600
2.67200E+00,10.400
2.67600E+00,10.600
2.68000E+00,10.400
2.68400E+00,10.400
2.68800E+00,10.400
2.69200E+00,10.400
2.69600E+00,10.600
2.70000E+00,10.400
2.70400E+00,10.400
2.70800E+00,10.400
2.71200E+00,10.600
2.71600E+00,10.400
2.72000E+00,10.400
2.72400E+00,10.400
2.72800E+00,10.400
2.73200E+00,10.400
2.73600E+00,10.400
2.74000E+00,10.600
2.74400E+00,10.600
2.74800E+00,10.400
2.75200E+00,10.400
2.75600E+00,10.400
2.76000E+00,10.400
2.76400E+00,10.400
2.76800E+00,10.400
2.77200E+00,10.400
2.77600E+00,10.600
2.78000E+00,10.600
2.78400E+00,10.400
2.78800E+00,10.400
2.79200E+00,10.400
2.79600E+00,10.400
2.80000E+00,10.600
2.80400E+00,10.400
2.80800E+00,10.400
2.81200E+00,10.600
2.81600E+00,10.600
2.82000E+00,10.400
2.82400E+00,10.400
2.82800E+00,10.600
2.83200E+00,10.600
2.83600E+00,10.400
2.84000E+00,10.400
2.84400E+00,10.600
2.84800E+00,10.600
2.85200E+00,10.400
2.85600E+00,10.800
2.86000E+00,10.400
2.86400E+00,10.600
2.86800E+00,10.800
2.87200E+00,10.400
2.87600E+00,10.800
2.88000E+00,10.400
2.88400E+00,10.400
2.88800E+00,10.800
2.89200E+00,10.400
2.89600E+00,10.800
2.90000E+00,10.400
2.90400E+00,10.400
2.90800E+00,10.600
2.91200E+00,10.600
2.91600E+00,10.600
2.92000E+00,10.800
2.92400E+00,10.400
2.92800E+00,10.800
2.93200E+00,10.600
2.93600E+00,10.800
2.94000E+00,10.400
2.94400E+00,10.400
2.94800E+00,10.400
2.95200E+00,10.800
2.95600E+00,10.800
2.96000E+00,10.600
2.96400E+00,10.600
2.96800E+00,10.800
2.97200E+00,10.800
2.97600E+00,10.600
2.98000E+00,10.600
2.98400E+00,10.800
2.98800E+00,10.600
2.99200E+00,10.800
2.99600E+00,10.400
3.00000E+00,10.800
3.00400E+00,10.600
3.00800E+00,10.600
3.01200E+00,10.600
3.01600E+00,10.800
3.02000E+00,10.800
3.02400E+00,10.600
3.02800E+00,10.600
3.03200E+00,10.800
3.03600E+00,10.600
3.04000E+00,10.600
3.04400E+00,10.400
3.04800E+00,10.800
3.05200E+00,10.800
3.05600E+00,10.600
3.06000E+00,10.600
3.06400E+00,10.600
3.06800E+00,10.800
3.07200E+00,10.800
3.07600E+00,10.600
3.08000E+00,10.600
3.08400E+00,10.600
3.08800E+00,10.800
3.09200E+00,10.600
3.09600E+00,10.800
3.10000E+00,10.800
3.10400E+00,10.600
3.10800E+00,10.800
3.11200E+00,10.600
3.11600E+00,10.600
3.12000E+00,10.800
3.12400E+00,10.600
3.12800E+00,10.600
3.13200E+00,10.800
3.13600E+00,10.600
3.14000E+00,10.800
3.14400E+00,10.800
3.14800E+00,10.600
3.15200E+00,10.800
3.15600E+00,10.600
3.16000E+00,10.800
3.16400E+00,10.600
3.16800E+00,10.600
3.17200E+00,10.600
3.17600E+00,10.600
3.18000E+00,10.600
3.18400E+00,10.600
3.18800E+00,10.600
3.19200E+00,10.800
3.19600E+00,10.800
3.20000E+00,10.600
3.20400E+00,10.600
3.20800E+00,10.600
3.21200E+00,10.800
3.21600E+00,10.800
3.22000E+00,10.600
3.22400E+00,10.800
3.22800E+00,10.600
3.23200E+00,10.600
3.23600E+00,10.800
3.24000E+00,10.800
3.24400E+00,10.600
3.24800E+00,10.800
3.25200E+00,10.600
3.25600E+00,10.600
3.26000E+00,10.800
3.26400E+00,10.600
3.26800E+00,10.600
3.27200E+00,10.800
3.27600E+00,10.800
3.28000E+00,10.600
3.28400E+00,10.600
3.28800E+00,10.800
3.29200E+00,10.600
3.29600E+00,10.600
3.30000E+00,11.000
3.30400E+00,10.600
3.30800E+00,10.600
3.31200E+00,10.600
3.31600E+00,10.600
3.32000E+00,10.800
3.32400E+00,10.600
3.32800E+00,10.800
3.33200E+00,10.600
3.33600E+00,10.600
3.34000E+00,10.600
3.34400E+00,10.600
3.34800E+00,10.800
3.35200E+00,11.000
3.35600E+00,10.600
3.36000E+00,10.800
3.36400E+00,10.800
3.36800E+00,10.600
3.37200E+00,10.600
3.37600E+00,10.800
3.38000E+00,11.000
3.38400E+00,10.600
3.38800E+00,10.600
3.39200E+00,10.800
3.39600E+00,10.600
3.40000E+00,10.600
3.40400E+00,11.000
3.40800E+00,10.800
3.41200E+00,10.600
3.41600E+00,10.600
3.42000E+00,10.600
3.42400E+00,11.000
3.42800E+00,10.800
3.43200E+00,10.600
3.43600E+00,10.600
3.44000E+00,10.600
3.44400E+00,10.600
3.44800E+00,10.800
3.45200E+00,10.800
3.45600E+00,10.800
3.46000E+00,11.000
3.46400E+00,10.800
3.46800E+00,10.800
3.47200E+00,10.600
3.47600E+00,10.800
3.48000E+00,10.800
3.48400E+00,10.800
3.48800E+00,10.800
3.49200E+00,10.800
3.49600E+00,10.600
3.50000E+00,10.600
3.50400E+00,10.800
3.50800E+00,10.600
3.51200E+00,10.600
3.51600E+00,10.800
3.52000E+00,10.800
3.52400E+00,10.800
3.52800E+00,11.000
3.53200E+00,10.800
3.53600E+00,10.600
3.54000E+00,10.600
3.54400E+00,10.800
3.54800E+00,11.000
3.55200E+00,10.800
3.55600E+00,10.600
3.56000E+00,10.600
3.56400E+00,10.800
3.56800E+00,10.800
3.57200E+00,10.600
3.57600E+00,10.800
3.58000E+00,10.800
3.58400E+00,10.800
3.58800E+00,10.800
3.59200E+00,10.800
3.59600E+00,10.800
3.60000E+00,10.800
3.60400E+00,10.600
3.60800E+00,10.800
3.61200E+00,10.800
3.61600E+00,10.800
3.62000E+00,11.000
3.62400E+00,10.600
3.62800E+00,10.800
3.63200E+00,10.600
3.63600E+00,10.800
3.64000E+00,10.800
3.64400E+00,10.800
3.64800E+00,10.800
3.65200E+00,11.000
3.65600E+00,10.800
3.66000E+00,10.600
3.66400E+00,10.800
3.66800E+00,11.000
3.67200E+00,10.800
3.67600E+00,10.600
3.68000E+00,10.800
3.68400E+00,10.600
3.68800E+00,10.600
3.69200E+00,10.600
3.69600E+00,10.600
3.70000E+00,10.800
3.70400E+00,10.600
3.70800E+00,10.800
3.71200E+00,10.800
3.71600E+00,10.600
3.72000E+00,10.800
3.72400E+00,10.600
3.72800E+00,10.800
3.73200E+00,10.800
3.73600E+00,10.800
3.74000E+00,11.000
3.74400E+00,10.800
3.74800E+00,10.600
3.75200E+00,10.800
3.75600E+00,10.800
3.76000E+00,10.600
3.76400E+00,10.600
3.76800E+00,10.600
3.77200E+00,10.800
3.77600E+00,10.800
3.78000E+00,10.800
3.78400E+00,11.000
3.78800E+00,10.800
3.79200E+00,11.000
3.79600E+00,10.800
3.80000E+00,10.600
3.80400E+00,10.800
3.80800E+00,10.800
3.81200E+00,10.800
3.81600E+00,10.800
3.82000E+00,10.800
3.82400E+00,11.000
3.82800E+00,11.000
3.83200E+00,10.600
3.83600E+00,10.600
3.84000E+00,10.800
3.84400E+00,11.000
3.84800E+00,10.800
3.85200E+00,11.000
3.85600E+00,11.000
3.86000E+00,10.600
3.86400E+00,11.000
3.86800E+00,10.800
3.87200E+00,10.800
3.87600E+00,10.600
3.88000E+00,10.800
3.88400E+00,11.000
3.88800E+00,10.800
3.89200E+00,10.600
3.89600E+00,10.800
3.90000E+00,10.800
3.90400E+00,11.000
3.90800E+00,11.000
3.91200E+00,10.600
3.91600E+00,11.000
3.92000E+00,10.800
3.92400E+00,10.800
3.92800E+00,10.600
3.93200E+00,10.800
3.93600E+00,10.800
3.94000E+00,11.000
3.94400E+00,10.800
3.94800E+00,11.000
3.95200E+00,10.600
3.95600E+00,10.600
3.96000E+00,10.600
3.96400E+00,10.600
3.96800E+00,10.800
3.97200E+00,10.800
3.97600E+00,10.800
3.98000E+00,10.800
3.98400E+00,11.000
3.98800E+00,11.000
3.99200E+00,10.800
3.99600E+00,10.600
4.00000E+00,10.600
4.00400E+00,10.800
4.00800E+00,11.000
4.01200E+00,10.800
4.01600E+00,10.800
4.02000E+00,10.800
4.02400E+00,10.800
4.02800E+00,11.000
4.03200E+00,10.800
4.03600E+00,10.800
4.04000E+00,10.800
4.04400E+00,10.800
4.04800E+00,10.800
4.05200E+00,10.800
4.05600E+00,10.800
4.06000E+00,10.800
4.06400E+00,10.600
4.06800E+00,11.000
4.07200E+00,11.000
4.07600E+00,10.600
4.08000E+00,10.800
4.08400E+00,10.800
4.08800E+00,11.000
4.09200E+00,10.600
4.09600E+00,10.800
4.10000E+00,11.000
4.10400E+00,10.600
4.10800E+00,10.600
4.11200E+00,10.600
4.11600E+00,11.000
4.12000E+00,10.800
4.12400E+00,11.000
4.12800E+00,10.800
4.13200E+00,10.800
4.13600E+00,10.800
4.14000E+00,10.600
4.14400E+00,10.600
4.14800E+00,11.000
4.15200E+00,11.000
4.15600E+00,10.800
4.16000E+00,10.800
4.16400E+00,10.600
4.16800E+00,11.000
4.17200E+00,10.800
4.17600E+00,11.000
4.18000E+00,11.000
4.18400E+00,10.600
4.18800E+00,10.800
4.19200E+00,10.800
4.19600E+00,10.600
4.20000E+00,10.800
4.20400E+00,10.800
4.20800E+00,11.000
4.21200E+00,11.000
4.21600E+00,10.800
4.22000E+00,11.000
4.22400E+00,10.800
4.22800E+00,10.800
4.23200E+00,10.800
4.23600E+00,10.800
4.24000E+00,10.800
4.24400E+00,10.800
4.24800E+00,10.800
4.25200E+00,11.000
4.25600E+00,10.800
4.26000E+00,11.000
4.26400E+00,11.000
4.26800E+00,10.800
4.27200E+00,11.000
4.27600E+00,10.800
4.28000E+00,10.800
4.28400E+00,10.800
4.28800E+00,10.800
4.29200E+00,10.800
4.29600E+00,11.000
4.30000E+00,10.800
4.30400E+00,11.000
4.30800E+00,10.800
4.31200E+00,10.800
4.31600E+00,11.000
4.32000E+00,10.800
4.32400E+00,11.000
4.32800E+00,11.000
4.33200E+00,10.600
4.33600E+00,10.800
4.34000E+00,11.000
4.34400E+00,11.000
4.34800E+00,10.800
4.35200E+00,11.000
4.35600E+00,11.000
4.36000E+00,10.800
4.36400E+00,11.000
4.36800E+00,10.800
4.37200E+00,11.000
4.37600E+00,10.800
4.38000E+00,11.000
4.38400E+00,11.000
4.38800E+00,10.800
4.39200E+00,10.800
4.39600E+00,10.800
4.40000E+00,10.800
4.40400E+00,11.000
4.40800E+00,11.000
4.41200E+00,10.800
4.41600E+00,10.800
4.42000E+00,11.000
4.42400E+00,11.000
4.42800E+00,10.800
4.43200E+00,10.800
4.43600E+00,10.800
4.44000E+00,10.600
4.44400E+00,10.800
4.44800E+00,11.000
4.45200E+00,10.800
4.45600E+00,10.800
4.46000E+00,10.800
4.46400E+00,10.800
4.46800E+00,10.800
4.47200E+00,11.000
4.47600E+00,11.000
4.48000E+00,10.800
4.48400E+00,10.800
4.48800E+00,10.800
4.49200E+00,10.800
4.49600E+00,11.000
4.50000E+00,10.800
4.50400E+00,11.000
4.50800E+00,10.800
4.51200E+00,10.800
4.51600E+00,10.800
4.52000E+00,10.800
4.52400E+00,10.800
4.52800E+00,10.800
4.53200E+00,11.000
4.53600E+00,10.800
4.54000E+00,10.600
4.54400E+00,11.000
4.54800E+00,11.000
4.55200E+00,10.800
4.55600E+00,10.800
4.56000E+00,11.000
4.56400E+00,11.000
4.56800E+00,10.800
4.57200E+00,11.000
4.57600E+00,10.800
4.58000E+00,10.800
4.58400E+00,10.800
4.58800E+00,11.000
4.59200E+00,11.000
4.59600E+00,10.800
4.60000E+00,11.000
4.60400E+00,10.800
4.60800E+00,11.000
4.61200E+00,11.000
4.61600E+00,10.800
4.62000E+00,10.800
4.62400E+00,10.800
4.62800E+00,10.800
4.63200E+00,10.800
4.63600E+00,10.800
4.64000E+00,10.800
4.64400E+00,11.000
4.64800E+00,11.000
4.65200E+00,10.800
4.65600E+00,10.800
4.66000E+00,10.800
4.66400E+00,10.800
4.66800E+00,10.800
4.67200E+00,10.800
4.67600E+00,11.000
4.68000E+00,10.800
4.68400E+00,11.000
4.68800E+00,10.800
4.69200E+00,10.800
4.69600E+00,10.800
4.70000E+00,10.800
4.70400E+00,11.000
4.70800E+00,10.600
4.71200E+00,10.800
4.71600E+00,11.000
4.72000E+00,10.800
4.72400E+00,11.000
4.72800E+00,11.000
4.73200E+00,10.800
4.73600E+00,10.600
4.74000E+00,10.800
4.74400E+00,10.800
4.74800E+00,11.000
4.75200E+00,11.000
4.75600E+00,10.800
4.76000E+00,11.000
4.76400E+00,11.000
4.76800E+00,10.800
4.77200E+00,11.000
4.77600E+00,10.800
4.78000E+00,10.800
4.78400E+00,11.000
4.78800E+00,11.000
4.79200E+00,10.800
4.79600E+00,10.800
4.80000E+00,11.000
4.80400E+00,11.000
4.80800E+00,10.800
4.81200E+00,11.000
4.81600E+00,11.000
4.82000E+00,10.800
4.82400E+00,11.000
4.82800E+00,10.800
4.83200E+00,10.800
4.83600E+00,10.800
4.84000E+00,10.800
4.84400E+00,10.800
4.84800E+00,11.000
4.85200E+00,11.000
4.85600E+00,10.800
4.86000E+00,10.800
4.86400E+00,11.000
4.86800E+00,11.000
4.87200E+00,10.800
4.87600E+00,11.000
4.88000E+00,10.800
4.88400E+00,10.800
4.88800E+00,10.800
4.89200E+00,10.800
4.89600E+00,10.800
4.90000E+00,10.800
4.90400E+00,11.000
4.90800E+00,10.800
4.91200E+00,10.800
4.91600E+00,10.800
4.92000E+00,10.800
4.92400E+00,10.800
4.92800E+00,10.800
4.93200E+00,11.000
4.93600E+00,11.000
4.94000E+00,10.800
4.94400E+00,11.000
4.94800E+00,10.800
4.95200E+00,11.000
4.95600E+00,10.800
4.96000E+00,10.800
4.96400E+00,11.000
4.96800E+00,11.000
4.97200E+00,10.800
4.97600E+00,11.000
4.98000E+00,10.600
4.98400E+00,10.800
4.98800E+00,11.000
4.99200E+00,11.000
4.99600E+00,10.800
5.00000E+00,11.000
5.00400E+00,10.800
5.00800E+00,10.800
5.01200E+00,10.800
5.01600E+00,11.000
5.02000E+00,10.800
5.02400E+00,10.800
5.02800E+00,10.800
5.03200E+00,10.800
5.03600E+00,11.000
5.04000E+00,10.800
5.04400E+00,10.800
5.04800E+00,10.800
5.05200E+00,11.000
5.05600E+00,11.000
5.06000E+00,10.800
5.06400E+00,10.600
5.06800E+00,10.800
5.07200E+00,10.800
5.07600E+00,10.800
5.08000E+00,11.000
5.08400E+00,11.000
5.08800E+00,10.800
5.09200E+00,11.000
5.09600E+00,10.800
5.10000E+00,10.800
5.10400E+00,10.800
5.10800E+00,11.000
5.11200E+00,11.000
5.11600E+00,10.800
5.12000E+00,11.000
5.12400E+00,10.800
5.12800E+00,11.000
5.13200E+00,11.000
5.13600E+00,10.800
5.14000E+00,11.000
5.14400E+00,11.000
5.14800E+00,10.800
5.15200E+00,10.800
5.15600E+00,10.800
5.16000E+00,11.000
5.16400E+00,10.800
5.16800E+00,11.000
5.17200E+00,10.800
5.17600E+00,10.800
5.18000E+00,10.800
5.18400E+00,10.800
5.18800E+00,11.000
5.19200E+00,11.000
5.19600E+00,10.800
5.20000E+00,10.800
5.20400E+00,11.000
5.20800E+00,10.800
5.21200E+00,11.000
5.21600E+00,10.800
5.22000E+00,10.800
5.22400E+00,11.000
5.22800E+00,10.800
5.23200E+00,10.800
5.23600E+00,10.800
5.24000E+00,11.000
5.24400E+00,11.000
5.24800E+00,10.800
5.25200E+00,10.800
5.25600E+00,10.600
5.26000E+00,10.800
5.26400E+00,10.800
5.26800E+00,10.800
5.27200E+00,11.000
5.27600E+00,10.800
5.28000E+00,10.800
5.28400E+00,10.800
5.28800E+00,11.000
5.29200E+00,11.000
5.29600E+00,10.800
5.30000E+00,11.000
5.30400E+00,10.800
5.30800E+00,10.800
5.31200E+00,11.000
5.31600E+00,10.800
5.32000E+00,10.800
5.32400E+00,10.800
5.32800E+00,10.800
5.33200E+00,10.800
5.33600E+00,10.800
5.34000E+00,10.800
5.34400E+00,10.800
5.34800E+00,11.000
5.35200E+00,11.200
5.35600E+00,10.800
5.36000E+00,11.000
5.36400E+00,10.800
5.36800E+00,10.800
5.37200E+00,11.000
5.37600E+00,11.000
5.38000E+00,10.800
5.38400E+00,10.800
5.38800E+00,10.800
5.39200E+00,11.000
5.39600E+00,11.000
5.40000E+00,10.800
5.40400E+00,11.000
5.40800E+00,11.000
5.41200E+00,10.800
5.41600E+00,10.800
5.42000E+00,11.000
5.42400E+00,10.800
5.42800E+00,10.800
5.43200E+00,10.800
5.43600E+00,10.800
5.44000E+00,10.800
5.44400E+00,11.000
5.44800E+00,11.000
5.45200E+00,10.800
5.45600E+00,11.000
5.46000E+00,10.800
5.46400E+00,11.000
5.46800E+00,10.800
5.47200E+00,11.000
5.47600E+00,10.800
5.48000E+00,11.000
5.48400E+00,11.000
5.48800E+00,10.800
5.49200E+00,11.000
5.49600E+00,11.000
5.50000E+00,10.800
5.50400E+00,11.000
5.50800E+00,10.800
5.51200E+00,10.800
5.51600E+00,10.800
5.52000E+00,11.000
5.52400E+00,11.000
5.52800E+00,10.800
5.53200E+00,10.800
5.53600E+00,10.800
5.54000E+00,10.800
5.54400E+00,11.000
5.54800E+00,11.000
5.55200E+00,10.800
5.55600E+00,10.800
5.56000E+00,10.800
5.56400E+00,10.800
5.56800E+00,11.000
5.57200E+00,11.000
5.57600E+00,10.800
5.58000E+00,10.800
5.58400E+00,11.000
5.58800E+00,10.800
5.59200E+00,10.800
5.59600E+00,11.000
5.60000E+00,10.800
5.60400E+00,10.800
5.60800E+00,10.800
5.61200E+00,10.800
5.61600E+00,10.800
5.62000E+00,11.000
5.62400E+00,11.000
5.62800E+00,10.800
5.63200E+00,10.800
5.63600E+00,10.800
5.64000E+00,11.000
5.64400E+00,11.000
5.64800E+00,10.800
5.65200E+00,10.800
5.65600E+00,11.000
5.66000E+00,11.000
5.66400E+00,10.800
5.66800E+00,11.000
5.67200E+00,10.800
5.67600E+00,10.800
5.68000E+00,10.800
5.68400E+00,11.000
5.68800E+00,10.800
5.69200E+00,11.000
5.69600E+00,10.800
5.70000E+00,10.800
5.70400E+00,10.800
5.70800E+00,10.800
5.71200E+00,10.800
5.71600E+00,10.800
5.72000E+00,11.000
5.72400E+00,11.000
5.72800E+00,10.800
5.73200E+00,10.800
5.73600E+00,11.000
5.74000E+00,10.800
5.74400E+00,10.800
5.74800E+00,11.000
5.75200E+00,11.000
5.75600E+00,10.800
5.76000E+00,10.800
5.76400E+00,10.800
5.76800E+00,10.800
5.77200E+00,11.000
5.77600E+00,11.000
5.78000E+00,10.800
5.78400E+00,10.800
5.78800E+00,11.000
5.79200E+00,11.000
5.79600E+00,10.800
5.80000E+00,11.000
5.80400E+00,11.000
5.80800E+00,10.800
5.81200E+00,10.800
5.81600E+00,10.800
5.82000E+00,10.800
5.82400E+00,11.000
5.82800E+00,11.000
5.83200E+00,10.800
5.83600E+00,11.000
5.84000E+00,11.000
5.84400E+00,10.800
5.84800E+00,10.800
5.85200E+00,10.800
5.85600E+00,11.000
5.86000E+00,11.000
5.86400E+00,10.800
5.86800E+00,11.000
5.87200E+00,10.800
5.87600E+00,10.800
5.88000E+00,11.000
5.88400E+00,10.800
5.88800E+00,10.800
5.89200E+00,11.000
5.89600E+00,11.000
5.90000E+00,10.800
5.90400E+00,10.800
5.90800E+00,10.800
5.91200E+00,10.800
5.91600E+00,11.000
5.92000E+00,11.000
5.92400E+00,10.800
5.92800E+00,11.000
5.93200E+00,10.800
5.93600E+00,11.000
5.94000E+00,11.000
5.94400E+00,10.800
5.94800E+00,10.800
5.95200E+00,10.800
5.95600E+00,10.800
5.96000E+00,11.000
5.96400E+00,10.800
5.96800E+00,10.800
5.97200E+00,11.000
5.97600E+00,11.000
5.98000E+00,10.800
5.98400E+00,10.800
5.98800E+00,10.800
5.99200E+00,10.800
5.99600E+00,10.800
6.00000E+00,10.800
6.00400E+00,11.000
6.00800E+00,11.000
6.01200E+00,10.800
6.01600E+00,11.000
6.02000E+00,10.800
6.02400E+00,11.000
6.02800E+00,11.000
6.03200E+00,10.800
6.03600E+00,10.800
6.04000E+00,10.800
6.04400E+00,11.000
6.04800E+00,10.800
6.05200E+00,10.800
6.05600E+00,10.800
6.06000E+00,10.800
6.06400E+00,10.800
6.06800E+00,10.800
6.07200E+00,10.800
6.07600E+00,10.800
6.08000E+00,10.800
6.08400E+00,10.800
6.08800E+00,11.000
6.09200E+00,10.800
6.09600E+00,10.800
6.10000E+00,10.800
6.10400E+00,11.000
6.10800E+00,10.800
6.11200E+00,10.800
6.11600E+00,10.800
6.12000E+00,10.800
6.12400E+00,11.000
6.12800E+00,11.000
6.13200E+00,10.800
6.13600E+00,11.000
6.14000E+00,10.800
6.14400E+00,10.800
6.14800E+00,10.800
6.15200E+00,10.800
6.15600E+00,10.800
6.16000E+00,10.800
6.16400E+00,11.000
6.16800E+00,11.000
6.17200E+00,10.800
6.17600E+00,10.800
6.18000E+00,10.800
6.18400E+00,10.800
6.18800E+00,10.800
6.19200E+00,10.800
6.19600E+00,11.000
6.20000E+00,11.000
6.20400E+00,10.800
6.20800E+00,11.000
6.21200E+00,10.800
6.21600E+00,11.000
6.22000E+00,10.800
6.22400E+00,10.800
6.22800E+00,11.000
6.23200E+00,10.800
6.23600E+00,10.800
6.24000E+00,10.800
6.24400E+00,11.000
6.24800E+00,10.800
6.25200E+00,11.000
6.25600E+00,11.000
6.26000E+00,10.800
6.26400E+00,11.000
6.26800E+00,10.800
6.27200E+00,10.800
6.27600E+00,11.000
6.28000E+00,11.000
6.28400E+00,10.800
6.28800E+00,10.800
6.29200E+00,10.800
6.29600E+00,11.000
6.30000E+00,11.000
6.30400E+00,10.800
6.30800E+00,11.000
6.31200E+00,10.800
6.31600E+00,11.000
6.32000E+00,10.800
6.32400E+00,10.800
6.32800E+00,11.000
6.33200E+00,11.000
6.33600E+00,10.800
6.34000E+00,11.200
6.34400E+00,11.000
6.34800E+00,10.800
6.35200E+00,10.800
6.35600E+00,10.800
6.36000E+00,10.800
6.36400E+00,11.000
6.36800E+00,10.800
6.37200E+00,10.800
6.37600E+00,10.800
6.38000E+00,11.200
6.38400E+00,10.800
6.38800E+00,11.000
6.39200E+00,11.000
6.39600E+00,10.800
6.40000E+00,10.800
6.40400E+00,10.800
6.40800E+00,11.000
6.41200E+00,11.000
6.41600E+00,10.800
6.42000E+00,10.800
6.42400E+00,10.800
6.42800E+00,10.800
6.43200E+00,11.000
6.43600E+00,11.000
6.44000E+00,10.800
6.44400E+00,10.800
6.44800E+00,10.800
6.45200E+00,11.000
6.45600E+00,11.000
6.46000E+00,10.800
6.46400E+00,11.000
6.46800E+00,10.600
6.47200E+00,10.800
6.47600E+00,11.000
6.48000E+00,10.800
6.48400E+00,10.800
6.48800E+00,11.000
6.49200E+00,10.800
6.49600E+00,11.000
6.50000E+00,11.000
6.50400E+00,10.800
6.50800E+00,10.800
6.51200E+00,10.800
6.51600E+00,11.000
6.52000E+00,10.800
6.52400E+00,10.800
6.52800E+00,10.800
6.53200E+00,11.000
6.53600E+00,11.000
6.54000E+00,10.800
6.54400E+00,11.000
6.54800E+00,10.800
6.55200E+00,10.800
6.55600E+00,10.800
6.56000E+00,11.000
6.56400E+00,10.800
6.56800E+00,10.800
6.57200E+00,10.800
6.57600E+00,10.800
6.58000E+00,10.800
6.58400E+00,10.800
6.58800E+00,10.800
6.59200E+00,10.800
6.59600E+00,11.000
6.60000E+00,11.000
6.60400E+00,10.800
6.60800E+00,10.800
6.61200E+00,10.800
6.61600E+00,10.800
6.62000E+00,11.000
6.62400E+00,11.000
6.62800E+00,10.800
6.63200E+00,10.800
6.63600E+00,10.800
6.64000E+00,11.000
6.64400E+00,11.000
6.64800E+00,10.800
6.65200E+00,10.800
6.65600E+00,10.800
6.66000E+00,11.000
6.66400E+00,10.800
6.66800E+00,10.800
6.67200E+00,11.000
6.67600E+00,11.000
6.68000E+00,10.800
6.68400E+00,10.800
6.68800E+00,11.000
6.69200E+00,11.000
6.69600E+00,10.800
6.70000E+00,11.000
6.70400E+00,11.000
6.70800E+00,10.800
6.71200E+00,10.800
6.71600E+00,11.000
6.72000E+00,10.800
6.72400E+00,10.800
6.72800E+00,10.800
6.73200E+00,10.800
6.73600E+00,11.000
6.74000E+00,11.000
6.74400E+00,10.800
6.74800E+00,11.000
6.75200E+00,11.000
6.75600E+00,10.800
6.76000E+00,11.000
6.76400E+00,10.800
6.76800E+00,10.800
6.77200E+00,10.800
6.77600E+00,11.000
6.78000E+00,11.000
6.78400E+00,10.800
6.78800E+00,10.800
6.79200E+00,11.000
6.79600E+00,11.000
6.80000E+00,11.000
6.80400E+00,11.000
6.80800E+00,10.800
6.81200E+00,11.000
6.81600E+00,10.800
6.82000E+00,10.800
6.82400E+00,10.800
6.82800E+00,11.000
6.83200E+00,11.000
6.83600E+00,10.800
6.84000E+00,10.800
6.84400E+00,10.800
6.84800E+00,11.000
6.85200E+00,10.800
6.85600E+00,11.000
6.86000E+00,10.800
6.86400E+00,11.000
6.86800E+00,11.000
6.87200E+00,10.800
6.87600E+00,11.000
6.88000E+00,10.800
6.88400E+00,11.000
6.88800E+00,10.800
6.89200E+00,11.200
6.89600E+00,10.800
6.90000E+00,11.000
6.90400E+00,10.800
6.90800E+00,11.000
6.91200E+00,10.800
6.91600E+00,10.800
6.92000E+00,11.000
6.92400E+00,10.800
6.92800E+00,10.800
6.93200E+00,10.800
6.93600E+00,10.800
6.94000E+00,10.800
6.94400E+00,10.800
6.94800E+00,10.800
6.95200E+00,11.000
6.95600E+00,11.000
6.96000E+00,10.800
6.96400E+00,10.800
6.96800E+00,10.800
6.97200E+00,11.000
6.97600E+00,11.000
6.98000E+00,10.800
6.98400E+00,10.800
6.98800E+00,10.800
6.99200E+00,10.800
6.99600E+00,11.000
7.00000E+00,11.000
7.00400E+00,10.800
7.00800E+00,10.800
7.01200E+00,10.800
7.01600E+00,11.000
7.02000E+00,10.800
7.02400E+00,10.800
7.02800E+00,11.000
7.03200E+00,11.000
7.03600E+00,10.800
7.04000E+00,11.000
7.04400E+00,10.800
7.04800E+00,11.000
7.05200E+00,11.000
7.05600E+00,10.800
7.06000E+00,11.000
7.06400E+00,10.800
7.06800E+00,10.800
7.07200E+00,11.000
7.07600E+00,11.000
7.08000E+00,10.800
7.08400E+00,10.800
7.08800E+00,11.000
7.09200E+00,11.000
7.09600E+00,10.800
7.10000E+00,11.000
7.10400E+00,10.800
7.10800E+00,10.800
7.11200E+00,11.000
7.11600E+00,10.800
7.12000E+00,11.000
7.12400E+00,10.800
7.12800E+00,11.000
7.13200E+00,10.800
7.13600E+00,11.000
7.14000E+00,11.000
7.14400E+00,10.800
7.14800E+00,10.800
7.15200E+00,11.000
7.15600E+00,10.800
7.16000E+00,11.000
7.16400E+00,10.800
7.16800E+00,10.800
7.17200E+00,10.800
7.17600E+00,11.200
7.18000E+00,11.000
7.18400E+00,10.800
7.18800E+00,10.800
7.19200E+00,10.800
7.19600E+00,11.000
7.20000E+00,10.800
7.20400E+00,10.800
7.20800E+00,10.800
7.21200E+00,10.800
7.21600E+00,10.800
7.22000E+00,10.800
7.22400E+00,10.800
7.22800E+00,10.800
7.23200E+00,10.800
7.23600E+00,11.000
7.24000E+00,11.000
7.24400E+00,10.800
7.24800E+00,10.800
7.25200E+00,10.800
7.25600E+00,11.000
7.26000E+00,10.800
7.26400E+00,11.000
7.26800E+00,11.000
7.27200E+00,10.800
7.27600E+00,11.000
7.28000E+00,11.000
7.28400E+00,10.800
7.28800E+00,11.000
7.29200E+00,10.800
7.29600E+00,11.000
7.30000E+00,11.000
7.30400E+00,10.800
7.30800E+00,11.000
7.31200E+00,11.000
7.31600E+00,10.800
7.32000E+00,10.800
7.32400E+00,11.000
7.32800E+00,10.800
7.33200E+00,10.800
7.33600E+00,10.800
7.34000E+00,11.000
7.34400E+00,10.800
7.34800E+00,10.800
7.35200E+00,10.800
7.35600E+00,11.000
7.36000E+00,11.000
7.36400E+00,10.800
7.36800E+00,11.000
7.37200E+00,10.800
7.37600E+00,11.000
7.38000E+00,10.800
7.38400E+00,10.800
7.38800E+00,10.800
7.39200E+00,10.800
7.39600E+00,11.000
7.40000E+00,10.800
7.40400E+00,10.800
7.40800E+00,11.000
7.41200E+00,10.800
7.41600E+00,11.000
7.42000E+00,10.800
7.42400E+00,11.000
7.42800E+00,10.800
7.43200E+00,10.800
7.43600E+00,10.800
7.44000E+00,11.000
7.44400E+00,11.000
7.44800E+00,10.800
7.45200E+00,11.000
7.45600E+00,11.000
7.46000E+00,10.800
7.46400E+00,11.000
7.46800E+00,10.800
7.47200E+00,11.000
7.47600E+00,11.000
7.48000E+00,10.800
7.48400E+00,10.800
7.48800E+00,10.800
7.49200E+00,11.000
7.49600E+00,11.000
7.50000E+00,10.800
7.50400E+00,11.000
7.50800E+00,10.800
7.51200E+00,11.000
7.51600E+00,11.000
7.52000E+00,10.800
7.52400E+00,11.000
7.52800E+00,10.800
7.53200E+00,10.800
7.53600E+00,10.800
7.54000E+00,10.800
7.54400E+00,10.800
7.54800E+00,11.000
7.55200E+00,11.000
7.55600E+00,10.800
7.56000E+00,10.800
7.56400E+00,10.800
7.56800E+00,11.000
7.57200E+00,10.800
7.57600E+00,11.000
7.58000E+00,11.000
7.58400E+00,10.800
7.58800E+00,11.000
7.59200E+00,11.000
7.59600E+00,10.800
7.60000E+00,11.000
7.60400E+00,10.800
7.60800E+00,11.000
7.61200E+00,11.000
7.61600E+00,10.800
7.62000E+00,11.000
7.62400E+00,11.000
7.62800E+00,10.800
7.63200E+00,10.800
7.63600E+00,10.800
7.64000E+00,11.000
7.64400E+00,11.000
7.64800E+00,10.800
7.65200E+00,10.800
7.65600E+00,10.800
7.66000E+00,10.800
7.66400E+00,10.800
7.66800E+00,10.800
7.67200E+00,10.800
7.67600E+00,11.000
7.68000E+00,11.000
7.68400E+00,10.800
7.68800E+00,11.000
7.69200E+00,11.000
7.69600E+00,10.800
7.70000E+00,11.000
7.70400E+00,10.800
7.70800E+00,11.000
7.71200E+00,10.800
7.71600E+00,11.000
7.72000E+00,10.800
7.72400E+00,10.800
7.72800E+00,10.800
7.73200E+00,11.000
7.73600E+00,10.800
7.74000E+00,11.000
7.74400E+00,11.000
7.74800E+00,10.800
7.75200E+00,11.000
7.75600E+00,10.800
7.76000E+00,11.000
7.76400E+00,11.000
7.76800E+00,10.800
7.77200E+00,11.000
7.77600E+00,10.800
7.78000E+00,10.800
7.78400E+00,11.000
7.78800E+00,11.000
7.79200E+00,10.800
7.79600E+00,10.800
7.80000E+00,11.000
7.80400E+00,11.000
7.80800E+00,10.800
7.81200E+00,11.000
7.81600E+00,10.800
7.82000E+00,11.000
7.82400E+00,11.000
7.82800E+00,10.800
7.83200E+00,10.800
7.83600E+00,10.800
7.84000E+00,10.800
7.84400E+00,10.800
7.84800E+00,11.000
7.85200E+00,11.000
7.85600E+00,10.800
7.86000E+00,10.800
7.86400E+00,10.800
7.86800E+00,10.800
7.87200E+00,10.800
7.87600E+00,10.800
7.88000E+00,11.000
7.88400E+00,11.000
7.88800E+00,10.800
7.89200E+00,10.800
7.89600E+00,10.800
7.90000E+00,10.800
7.90400E+00,10.800
7.90800E+00,11.000
7.91200E+00,10.800
7.91600E+00,10.800
7.92000E+00,11.000
7.92400E+00,10.800
7.92800E+00,10.800
7.93200E+00,10.800
7.93600E+00,11.000
7.94000E+00,10.800
7.94400E+00,10.800
7.94800E+00,10.800
7.95200E+00,10.800
7.95600E+00,11.000
7.96000E+00,10.800
7.96400E+00,10.800
7.96800E+00,11.000
7.97200E+00,11.000
7.97600E+00,10.800
7.98000E+00,10.800
7.98400E+00,10.800
7.98800E+00,10.800
7.99200E+00,10.800
7.99600E+00,10.800
8.00000E+00,10.800
8.00400E+00,10.800
8.00800E+00,10.800
8.01200E+00,11.000
8.01600E+00,11.000
8.02000E+00,10.800
8.02400E+00,11.000
8.02800E+00,11.000
8.03200E+00,10.800
8.03600E+00,10.800
8.04000E+00,10.800
8.04400E+00,10.800
8.04800E+00,11.000
8.05200E+00,10.800
8.05600E+00,10.800
8.06000E+00,11.000
8.06400E+00,10.800
8.06800E+00,11.000
8.07200E+00,10.800
8.07600E+00,11.000
8.08000E+00,10.800
8.08400E+00,10.800
8.08800E+00,10.800
8.09200E+00,11.000
8.09600E+00,11.000
8.10000E+00,10.800
8.10400E+00,11.000
8.10800E+00,11.000
8.11200E+00,10.800
8.11600E+00,10.800
8.12000E+00,11.000
8.12400E+00,11.000
8.12800E+00,10.800
8.13200E+00,11.200
8.13600E+00,10.800
8.14000E+00,11.000
8.14400E+00,10.800
8.14800E+00,10.800
8.15200E+00,11.000
8.15600E+00,11.000
8.16000E+00,10.800
8.16400E+00,10.800
8.16800E+00,11.000
8.17200E+00,11.000
8.17600E+00,10.800
8.18000E+00,10.800
8.18400E+00,10.800
8.18800E+00,11.000
8.19200E+00,10.800
8.19600E+00,10.800
8.20000E+00,11.000
8.20400E+00,11.000
8.20800E+00,10.800
8.21200E+00,11.000
8.21600E+00,10.800
8.22000E+00,10.800
8.22400E+00,10.800
8.22800E+00,11.000
8.23200E+00,11.200
8.23600E+00,10.800
8.24000E+00,10.800
8.24400E+00,10.800
8.24800E+00,10.800
8.25200E+00,11.000
8.25600E+00,11.000
8.26000E+00,10.800
8.26400E+00,11.000
8.26800E+00,10.800
8.27200E+00,10.800
8.27600E+00,10.800
8.28000E+00,10.800
8.28400E+00,11.000
8.28800E+00,11.000
8.29200E+00,10.800
8.29600E+00,10.800
8.30000E+00,11.000
8.30400E+00,11.000
8.30800E+00,10.800
8.31200E+00,10.800
8.31600E+00,11.000
8.32000E+00,10.800
8.32400E+00,10.800
8.32800E+00,10.800
8.33200E+00,10.800
8.33600E+00,10.800
8.34000E+00,10.800
8.34400E+00,11.000
8.34800E+00,11.000
8.35200E+00,10.800
8.35600E+00,10.800
8.36000E+00,10.800
8.36400E+00,11.000
8.36800E+00,11.200
8.37200E+00,10.800
8.37600E+00,10.800
8.38000E+00,11.000
8.38400E+00,11.000
8.38800E+00,10.800
8.39200E+00,10.800
8.39600E+00,10.800
8.40000E+00,10.800
8.40400E+00,10.800
8.40800E+00,11.000
8.41200E+00,10.800
8.41600E+00,11.000
8.42000E+00,11.000
8.42400E+00,10.800
8.42800E+00,10.800
8.43200E+00,11.000
8.43600E+00,11.000
8.44000E+00,10.800
8.44400E+00,10.800
8.44800E+00,10.800
8.45200E+00,10.800
8.45600E+00,10.800
8.46000E+00,11.000
8.46400E+00,11.000
8.46800E+00,10.800
8.47200E+00,11.000
8.47600E+00,11.000
8.48000E+00,11.000
8.48400E+00,10.800
8.48800E+00,11.000
8.49200E+00,11.000
8.49600E+00,10.800
8.50000E+00,11.000
8.50400E+00,10.800
8.50800E+00,11.000
8.51200E+00,11.000
8.51600E+00,10.800
8.52000E+00,10.800
8.52400E+00,11.000
8.52800E+00,10.800
8.53200E+00,10.800
8.53600E+00,11.000
8.54000E+00,11.000
8.54400E+00,10.800
8.54800E+00,10.800
8.55200E+00,10.800
8.55600E+00,10.800
8.56000E+00,10.800
8.56400E+00,10.800
8.56800E+00,11.000
8.57200E+00,10.800
8.57600E+00,10.800
8.58000E+00,11.000
8.58400E+00,11.000
8.58800E+00,10.800
8.59200E+00,11.000
8.59600E+00,11.200
8.60000E+00,10.800
8.60400E+00,10.800
8.60800E+00,11.000
8.61200E+00,10.800
8.61600E+00,11.000
8.62000E+00,10.800
8.62400E+00,11.000
8.62800E+00,10.800
8.63200E+00,11.000
8.63600E+00,10.800
8.64000E+00,11.000
8.64400E+00,11.000
8.64800E+00,10.800
8.65200E+00,11.000
8.65600E+00,10.800
8.66000E+00,10.800
8.66400E+00,10.800
8.66800E+00,10.800
8.67200E+00,10.800
8.67600E+00,10.800
8.68000E+00,11.000
8.68400E+00,11.000
8.68800E+00,10.800
8.69200E+00,10.800
8.69600E+00,11.000
8.70000E+00,10.800
8.70400E+00,11.000
8.70800E+00,11.000
8.71200E+00,10.800
8.71600E+00,11.000
8.72000E+00,11.000
8.72400E+00,10.800
8.72800E+00,10.800
8.73200E+00,10.800
8.73600E+00,10.800
8.74000E+00,10.800
8.74400E+00,10.800
8.74800E+00,10.800
8.75200E+00,11.000
8.75600E+00,10.800
8.76000E+00,10.800
8.76400E+00,11.000
8.76800E+00,11.000
8.77200E+00,10.800
8.77600E+00,10.800
8.78000E+00,10.800
8.78400E+00,10.800
8.78800E+00,11.000
8.79200E+00,11.000
8.79600E+00,10.800
8.80000E+00,10.800
8.80400E+00,10.800
8.80800E+00,11.000
8.81200E+00,11.000
8.81600E+00,10.800
8.82000E+00,11.000
8.82400E+00,11.000
8.82800E+00,10.800
8.83200E+00,11.000
8.83600E+00,10.800
8.84000E+00,10.800
8.84400E+00,10.800
8.84800E+00,11.000
8.85200E+00,10.800
8.85600E+00,10.800
8.86000E+00,11.000
8.86400E+00,11.000
8.86800E+00,10.800
8.87200E+00,11.000
8.87600E+00,11.000
8.88000E+00,10.800
8.88400E+00,10.800
8.88800E+00,11.000
8.89200E+00,10.800
8.89600E+00,10.800
8.90000E+00,10.800
8.90400E+00,11.000
8.90800E+00,11.000
8.91200E+00,10.800
8.91600E+00,10.800
8.92000E+00,11.000
8.92400E+00,10.800
8.92800E+00,10.600
8.93200E+00,11.000
8.93600E+00,11.000
8.94000E+00,10.800
8.94400E+00,11.000
8.94800E+00,11.000
8.95200E+00,10.800
8.95600E+00,10.800
8.96000E+00,10.800
8.96400E+00,10.800
8.96800E+00,10.800
8.97200E+00,11.000
8.97600E+00,11.000
8.98000E+00,10.800
8.98400E+00,11.000
8.98800E+00,11.000
8.99200E+00,10.800
8.99600E+00,10.800
9.00000E+00,11.000
9.00400E+00,11.000
9.00800E+00,10.800
9.01200E+00,11.000
9.01600E+00,10.800
9.02000E+00,11.000
9.02400E+00,10.800
9.02800E+00,11.000
9.03200E+00,11.000
9.03600E+00,10.800
9.04000E+00,11.000
9.04400E+00,11.000
9.04800E+00,10.800
9.05200E+00,10.800
9.05600E+00,10.800
9.06000E+00,11.000
9.06400E+00,10.800
9.06800E+00,10.800
9.07200E+00,10.800
9.07600E+00,11.000
9.08000E+00,11.000
9.08400E+00,10.800
9.08800E+00,11.000
9.09200E+00,10.800
9.09600E+00,11.000
9.10000E+00,11.000
9.10400E+00,11.000
9.10800E+00,10.800
9.11200E+00,10.800
9.11600E+00,10.800
9.12000E+00,10.800
9.12400E+00,10.800
9.12800E+00,10.800
9.13200E+00,11.000
9.13600E+00,11.000
9.14000E+00,10.800
9.14400E+00,10.800
9.14800E+00,11.000
9.15200E+00,10.800
9.15600E+00,10.800
9.16000E+00,10.800
9.16400E+00,10.800
9.16800E+00,11.000
9.17200E+00,10.800
9.17600E+00,11.000
9.18000E+00,11.000
9.18400E+00,10.800
9.18800E+00,10.800
9.19200E+00,10.800
9.19600E+00,10.800
9.20000E+00,11.000
9.20400E+00,10.800
9.20800E+00,10.800
9.21200E+00,10.800
9.21600E+00,11.000
9.22000E+00,11.000
9.22400E+00,11.000
9.22800E+00,10.800
9.23200E+00,10.800
9.23600E+00,10.800
9.24000E+00,10.800
9.24400E+00,10.800
9.24800E+00,10.800
9.25200E+00,10.800
9.25600E+00,10.800
9.26000E+00,11.000
9.26400E+00,11.000
9.26800E+00,10.800
9.27200E+00,10.800
9.27600E+00,10.800
9.28000E+00,11.000
9.28400E+00,10.800
9.28800E+00,11.000
9.29200E+00,10.800
9.29600E+00,11.000
9.30000E+00,10.800
9.30400E+00,10.800
9.30800E+00,11.000
9.31200E+00,10.800
9.31600E+00,10.800
9.32000E+00,11.000
9.32400E+00,11.000
9.32800E+00,10.800
9.33200E+00,11.000
9.33600E+00,10.800
9.34000E+00,11.000
9.34400E+00,11.000
9.34800E+00,10.800
9.35200E+00,10.800
9.35600E+00,10.800
9.36000E+00,11.000
9.36400E+00,11.000
9.36800E+00,11.000
9.37200E+00,11.000
9.37600E+00,10.800
9.38000E+00,10.800
9.38400E+00,11.000
9.38800E+00,10.800
9.39200E+00,10.800
9.39600E+00,10.800
9.40000E+00,11.000
9.40400E+00,11.000
9.40800E+00,10.800
9.41200E+00,11.000
9.41600E+00,10.800
9.42000E+00,10.800
9.42400E+00,10.800
9.42800E+00,11.000
9.43200E+00,11.000
9.43600E+00,10.800
9.44000E+00,11.000
9.44400E+00,10.800
9.44800E+00,10.800
9.45200E+00,10.800
9.45600E+00,10.800
9.46000E+00,10.800
9.46400E+00,10.800
9.46800E+00,10.800
9.47200E+00,10.800
9.47600E+00,10.800
9.48000E+00,10.800
9.48400E+00,10.800
9.48800E+00,10.800
9.49200E+00,10.800
9.49600E+00,11.000
9.50000E+00,10.800
9.50400E+00,10.800
9.50800E+00,11.000
9.51200E+00,11.000
9.51600E+00,10.800
9.52000E+00,10.800
9.52400E+00,11.000
9.52800E+00,10.800
9.53200E+00,10.800
9.53600E+00,10.800
9.54000E+00,11.000
9.54400E+00,11.000
9.54800E+00,10.800
9.55200E+00,11.000
9.55600E+00,10.800
9.56000E+00,11.000
9.56400E+00,10.800
9.56800E+00,11.000
9.57200E+00,10.800
9.57600E+00,11.000
9.58000E+00,11.000
9.58400E+00,10.800
9.58800E+00,10.800
9.59200E+00,11.000
9.59600E+00,10.800
9.60000E+00,11.000
9.60400E+00,10.800
9.60800E+00,10.800
9.61200E+00,10.800
9.61600E+00,11.000
9.62000E+00,11.000
9.62400E+00,10.800
9.62800E+00,10.800
9.63200E+00,10.800
9.63600E+00,11.000
9.64000E+00,10.800
9.64400E+00,10.800
9.64800E+00,10.800
9.65200E+00,11.000
9.65600E+00,10.800
9.66000E+00,10.800
9.66400E+00,11.000
9.66800E+00,11.000
9.67200E+00,10.800
9.67600E+00,11.000
9.68000E+00,11.000
9.68400E+00,10.800
9.68800E+00,10.800
9.69200E+00,10.800
9.69600E+00,10.800
9.70000E+00,10.800
9.70400E+00,10.800
9.70800E+00,11.000
9.71200E+00,11.000
9.71600E+00,10.800
9.72000E+00,10.800
9.72400E+00,10.800
9.72800E+00,11.000
9.73200E+00,10.800
9.73600E+00,10.800
9.74000E+00,10.800
9.74400E+00,10.800
9.74800E+00,10.800
9.75200E+00,10.800
9.75600E+00,10.800
9.76000E+00,10.800
9.76400E+00,10.800
9.76800E+00,11.000
9.77200E+00,11.000
9.77600E+00,10.800
9.78000E+00,10.800
9.78400E+00,10.800
9.78800E+00,11.000
9.79200E+00,10.800
9.79600E+00,11.000
9.80000E+00,10.800
9.80400E+00,10.800
9.80800E+00,11.000
9.81200E+00,10.800
9.81600E+00,10.800
9.82000E+00,10.800
9.82400E+00,10.800
9.82800E+00,11.000
9.83200E+00,11.000
9.83600E+00,11.000
9.84000E+00,11.000
9.84400E+00,10.800
9.84800E+00,10.800
9.85200E+00,10.800
9.85600E+00,11.000
9.86000E+00,11.000
9.86400E+00,10.800
9.86800E+00,11.000
9.87200E+00,11.000
9.87600E+00,10.800
9.88000E+00,10.800
9.88400E+00,10.800
9.88800E+00,10.800
9.89200E+00,11.000
9.89600E+00,11.000
9.90000E+00,10.800
9.90400E+00,11.000
9.90800E+00,10.800
9.91200E+00,10.800
9.91600E+00,11.000
9.92000E+00,11.000
9.92400E+00,10.800
9.92800E+00,10.800
9.93200E+00,10.800
9.93600E+00,11.000
9.94000E+00,10.800
9.94400E+00,10.800
9.94800E+00,10.800
9.95200E+00,10.800
9.95600E+00,11.000
9.96000E+00,10.800
9.96400E+00,10.800
9.96800E+00,11.000
9.97200E+00,11.000
9.97600E+00,10.800
9.98000E+00,11.000
9.98400E+00,10.800
9.98800E+00,11.000
9.99200E+00,10.800
9.99600E+00,11.000
1.00000E+01,11.000
1.00040E+01,11.000
1.00080E+01,10.800
1.00120E+01,11.000
1.00160E+01,10.800
1.00200E+01,11.000
1.00240E+01,10.800
1.00280E+01,10.800
1.00320E+01,11.000
1.00360E+01,11.000
1.00400E+01,10.800
1.00440E+01,10.800
1.00480E+01,11.200
1.00520E+01,11.000
1.00560E+01,10.800
1.00600E+01,11.000
1.00640E+01,10.800
1.00680E+01,11.000
1.00720E+01,10.800
1.00760E+01,10.800
1.00800E+01,10.800
1.00840E+01,11.000
1.00880E+01,10.800
1.00920E+01,11.000
1.00960E+01,10.800
1.01000E+01,10.800
1.01040E+01,10.800
1.01080E+01,11.000
1.01120E+01,10.800
1.01160E+01,11.000
1.01200E+01,11.000
1.01240E+01,11.000
1.01280E+01,10.800
1.01320E+01,10.800
1.01360E+01,11.000
1.01400E+01,11.000
1.01440E+01,10.800
1.01480E+01,11.200
1.01520E+01,10.800
1.01560E+01,10.800
1.01600E+01,11.000
1.01640E+01,10.800
1.01680E+01,11.000
1.01720E+01,11.000
1.01760E+01,10.800
1.01800E+01,10.800
1.01840E+01,10.800
1.01880E+01,10.800
1.01920E+01,10.800
1.01960E+01,10.800
1.02000E+01,10.800
1.02040E+01,11.000
1.02080E+01,11.200
1.02120E+01,10.800
1.02160E+01,11.000
1.02200E+01,10.800
1.02240E+01,10.800
1.02280E+01,11.000
1.02320E+01,11.000
1.02360E+01,10.800
1.02400E+01,10.800
1.02440E+01,10.800
1.02480E+01,11.000
1.02520E+01,11.000
1.02560E+01,10.800
1.02600E+01,10.800
1.02640E+01,11.000
1.02680E+01,11.000
1.02720E+01,10.800
1.02760E+01,10.800
1.02800E+01,11.000
1.02840E+01,11.000
1.02880E+01,10.800
1.02920E+01,11.000
1.02960E+01,11.200
1.03000E+01,10.800
1.03040E+01,10.800
1.03080E+01,11.000
1.03120E+01,10.800
1.03160E+01,10.800
1.03200E+01,11.000
1.03240E+01,10.800
1.03280E+01,11.000
1.03320E+01,11.000
1.03360E+01,10.800
1.03400E+01,11.000
1.03440E+01,11.000
1.03480E+01,10.800
1.03520E+01,11.000
1.03560E+01,10.800
1.03600E+01,10.800
1.03640E+01,11.000
1.03680E+01,11.000
1.03720E+01,10.800
1.03760E+01,11.000
1.03800E+01,10.800
1.03840E+01,10.800
1.03880E+01,10.800
1.03920E+01,11.000
1.03960E+01,11.000
1.04000E+01,10.800
1.04040E+01,10.800
1.04080E+01,10.800
1.04120E+01,11.000
1.04160E+01,10.800
1.04200E+01,10.800
1.04240E+01,11.000
1.04280E+01,10.800
1.04320E+01,10.800
1.04360E+01,10.800
1.04400E+01,11.000
1.04440E+01,11.000
1.04480E+01,10.800
1.04520E+01,11.000
1.04560E+01,11.000
1.04600E+01,10.800
1.04640E+01,10.800
1.04680E+01,10.800
1.04720E+01,10.800
1.04760E+01,11.000
1.04800E+01,11.000
1.04840E+01,11.000
1.04880E+01,10.800
1.04920E+01,11.000
1.04960E+01,10.800
1.05000E+01,10.800
1.05040E+01,11.000
1.05080E+01,10.800
1.05120E+01,11.000
1.05160E+01,11.000
1.05200E+01,10.800
1.05240E+01,10.800
1.05280E+01,11.000
1.05320E+01,10.800
1.05360E+01,10.800
1.05400E+01,10.800
1.05440E+01,10.800
1.05480E+01,11.000
1.05520E+01,11.000
1.05560E+01,10.800
1.05600E+01,11.000
1.05640E+01,10.800
1.05680E+01,10.800
1.05720E+01,11.000
1.05760E+01,10.800
1.05800E+01,11.000
1.05840E+01,10.800
1.05880E+01,10.800
1.05920E+01,11.000
1.05960E+01,11.200
1.06000E+01,11.000
1.06040E+01,10.800
1.06080E+01,11.000
1.06120E+01,11.000
1.06160E+01,10.800
1.06200E+01,11.000
1.06240E+01,10.800
1.06280E+01,10.800
1.06320E+01,10.800
1.06360E+01,11.000
1.06400E+01,11.000
1.06440E+01,10.800
1.06480E+01,11.200
1.06520E+01,10.800
1.06560E+01,10.800
1.06600E+01,11.200
1.06640E+01,11.000
1.06680E+01,10.800
1.06720E+01,10.800
1.06760E+01,11.200
1.06800E+01,11.000
1.06840E+01,10.800
1.06880E+01,11.000
1.06920E+01,10.800
1.06960E+01,11.000
1.07000E+01,10.800
1.07040E+01,11.200
1.07080E+01,10.800
1.07120E+01,11.000
1.07160E+01,10.800
1.07200E+01,11.000
1.07240E+01,10.800
1.07280E+01,10.800
1.07320E+01,10.800
1.07360E+01,11.000
1.07400E+01,10.800
1.07440E+01,10.800
1.07480E+01,10.800
1.07520E+01,10.800
1.07560E+01,10.800
1.07600E+01,10.800
1.07640E+01,11.000
1.07680E+01,11.000
1.07720E+01,10.800
1.07760E+01,11.000
1.07800E+01,10.800
1.07840E+01,10.800
1.07880E+01,10.800
1.07920E+01,10.800
1.07960E+01,11.000
1.08000E+01,11.000
1.08040E+01,10.800
1.08080E+01,11.000
1.08120E+01,11.000
1.08160E+01,10.800
1.08200E+01,10.800
1.08240E+01,11.000
1.08280E+01,11.000
1.08320E+01,10.800
1.08360E+01,10.800
1.08400E+01,10.800
1.08440E+01,10.800
1.08480E+01,11.000
1.08520E+01,11.000
1.08560E+01,10.800
1.08600E+01,10.800
1.08640E+01,11.000
1.08680E+01,11.200
1.08720E+01,10.800
1.08760E+01,10.800
1.08800E+01,11.000
1.08840E+01,11.000
1.08880E+01,10.800
1.08920E+01,11.000
1.08960E+01,10.800
1.09000E+01,10.800
1.09040E+01,10.800
1.09080E+01,11.000
1.09120E+01,10.800
1.09160E+01,10.800
1.09200E+01,11.200
1.09240E+01,10.800
1.09280E+01,11.000
1.09320E+01,11.000
1.09360E+01,10.800
1.09400E+01,10.800
1.09440E+01,11.000
1.09480E+01,11.000
1.09520E+01,10.800
1.09560E+01,10.800
1.09600E+01,10.800
1.09640E+01,11.000
1.09680E+01,11.000
1.09720E+01,10.800
1.09760E+01,11.000
1.09800E+01,10.800
1.09840E+01,10.800
1.09880E+01,10.800
1.09920E+01,10.800
1.09960E+01,11.000
1.10000E+01,11.000
1.10040E+01,10.800
1.10080E+01,11.000
1.10120E+01,11.000
1.10160E+01,10.800
1.10200E+01,10.800
1.10240E+01,10.800
1.10280E+01,11.000
1.10320E+01,10.800
1.10360E+01,10.800
1.10400E+01,11.000
1.10440E+01,10.800
1.10480E+01,11.000
1.10520E+01,11.000
1.10560E+01,10.800
1.10600E+01,11.000
1.10640E+01,10.800
1.10680E+01,10.800
1.10720E+01,11.000
1.10760E+01,10.800
1.10800E+01,10.800
1.10840E+01,10.800
1.10880E+01,11.000
1.10920E+01,11.000
1.10960E+01,10.800
1.11000E+01,10.800
1.11040E+01,10.800
1.11080E+01,10.800
1.11120E+01,11.000
1.11160E+01,10.800
1.11200E+01,11.000
1.11240E+01,11.000
1.11280E+01,10.800
1.11320E+01,10.800
1.11360E+01,11.000
1.11400E+01,10.800
1.11440E+01,11.000
1.11480E+01,10.800
1.11520E+01,10.800
1.11560E+01,10.800
1.11600E+01,10.800
1.11640E+01,11.000
1.11680E+01,11.000
1.11720E+01,10.800
1.11760E+01,10.800
1.11800E+01,11.000
1.11840E+01,10.800
1.11880E+01,10.800
1.11920E+01,10.800
1.11960E+01,10.800
1.12000E+01,10.800
1.12040E+01,10.800
1.12080E+01,10.800
1.12120E+01,10.800
1.12160E+01,11.000
1.12200E+01,10.800
1.12240E+01,10.800
1.12280E+01,10.800
1.12320E+01,11.000
1.12360E+01,10.800
1.12400E+01,11.000
1.12440E+01,10.800
1.12480E+01,10.800
1.12520E+01,11.000
1.12560E+01,11.000
1.12600E+01,10.800
1.12640E+01,11.000
1.12680E+01,10.800
1.12720E+01,10.800
1.12760E+01,10.800
1.12800E+01,10.800
1.12840E+01,11.000
1.12880E+01,10.800
1.12920E+01,11.000
1.12960E+01,10.800
1.13000E+01,11.200
1.13040E+01,10.800
1.13080E+01,10.800
1.13120E+01,10.800
1.13160E+01,10.800
1.13200E+01,10.800
1.13240E+01,10.800
1.13280E+01,10.800
1.13320E+01,11.000
1.13360E+01,11.000
1.13400E+01,10.800
1.13440E+01,11.000
1.13480E+01,11.000
1.13520E+01,10.800
1.13560E+01,10.800
1.13600E+01,10.800
1.13640E+01,10.800
1.13680E+01,10.800
1.13720E+01,10.800
1.13760E+01,11.000
1.13800E+01,11.200
1.13840E+01,10.800
1.13880E+01,11.000
1.13920E+01,10.800
1.13960E+01,11.000
1.14000E+01,10.800
1.14040E+01,10.800
1.14080E+01,10.800
1.14120E+01,10.800
1.14160E+01,11.000
1.14200E+01,10.800
1.14240E+01,10.800
1.14280E+01,10.800
1.14320E+01,10.800
1.14360E+01,10.800
1.14400E+01,10.800
1.14440E+01,11.000
1.14480E+01,10.800
1.14520E+01,10.800
1.14560E+01,10.800
1.14600E+01,11.000
1.14640E+01,11.000
1.14680E+01,10.800
1.14720E+01,10.800
1.14760E+01,11.000
1.14800E+01,10.800
1.14840E+01,11.000
1.14880E+01,10.800
1.14920E+01,10.800
1.14960E+01,10.800
1.15000E+01,10.800
1.15040E+01,10.800
1.15080E+01,11.000
1.15120E+01,11.000
1.15160E+01,10.800
1.15200E+01,10.800
1.15240E+01,10.800
1.15280E+01,10.600
1.15320E+01,10.800
1.15360E+01,11.000
1.15400E+01,10.800
1.15440E+01,11.000
1.15480E+01,11.000
1.15520E+01,10.800
1.15560E+01,11.000
1.15600E+01,10.800
1.15640E+01,10.800
1.15680E+01,11.000
1.15720E+01,10.800
1.15760E+01,11.000
1.15800E+01,10.800
1.15840E+01,10.800
1.15880E+01,11.000
1.15920E+01,11.000
1.15960E+01,10.800
1.16000E+01,11.000
1.16040E+01,10.800
1.16080E+01,11.000
1.16120E+01,10.800
1.16160E+01,11.000
1.16200E+01,11.000
1.16240E+01,10.800
1.16280E+01,10.800
1.16320E+01,10.800
1.16360E+01,11.000
1.16400E+01,11.000
1.16440E+01,10.800
1.16480E+01,11.000
1.16520E+01,10.800
1.16560E+01,11.000
1.16600E+01,11.000
1.16640E+01,10.800
1.16680E+01,10.800
1.16720E+01,10.800
1.16760E+01,11.000
1.16800E+01,11.000
1.16840E+01,10.800
1.16880E+01,11.000
1.16920E+01,10.800
1.16960E+01,11.000
1.17000E+01,10.800
1.17040E+01,10.800
1.17080E+01,10.800
1.17120E+01,10.800
1.17160E+01,10.800
1.17200E+01,11.000
1.17240E+01,11.000
1.17280E+01,10.800
1.17320E+01,10.800
1.17360E+01,10.800
1.17400E+01,10.800
1.17440E+01,11.000
1.17480E+01,10.800
1.17520E+01,11.000
1.17560E+01,11.000
1.17600E+01,10.800
1.17640E+01,10.800
1.17680E+01,10.800
1.17720E+01,10.800
1.17760E+01,11.000
1.17800E+01,10.800
1.17840E+01,10.800
1.17880E+01,10.800
1.17920E+01,10.800
1.17960E+01,11.000
1.18000E+01,11.000
1.18040E+01,10.800
1.18080E+01,11.000
1.18120E+01,10.800
1.18160E+01,10.800
1.18200E+01,11.000
1.18240E+01,11.000
1.18280E+01,10.800
1.18320E+01,11.000
1.18360E+01,10.800
1.18400E+01,10.800
1.18440E+01,10.800
1.18480E+01,11.000
1.18520E+01,10.800
1.18560E+01,11.000
1.18600E+01,10.800
1.18640E+01,11.000
1.18680E+01,10.800
1.18720E+01,10.800
1.18760E+01,10.800
1.18800E+01,10.800
1.18840E+01,11.000
1.18880E+01,11.000
1.18920E+01,10.800
1.18960E+01,10.800
1.19000E+01,11.200
1.19040E+01,10.800
1.19080E+01,11.200
1.19120E+01,11.000
1.19160E+01,10.800
1.19200E+01,10.800
1.19240E+01,11.000
1.19280E+01,11.000
1.19320E+01,10.800
1.19360E+01,10.800
1.19400E+01,11.000
1.19440E+01,11.000
1.19480E+01,10.800
1.19520E+01,10.800
1.19560E+01,11.000
1.19600E+01,10.800
1.19640E+01,11.000
1.19680E+01,11.000
1.19720E+01,10.800
1.19760E+01,10.800
1.19800E+01,11.000
1.19840E+01,11.000
1.19880E+01,10.800
1.19920E+01,10.800
1.19960E+01,11.000
1.20000E+01,11.000
1.20040E+01,10.800
1.20080E+01,10.800
1.20120E+01,11.000
1.20160E+01,10.800
1.20200E+01,10.800
1.20240E+01,11.200
1.20280E+01,10.800
1.20320E+01,10.800
1.20360E+01,10.800
1.20400E+01,10.800
1.20440E+01,11.000
1.20480E+01,11.000
1.20520E+01,10.800
1.20560E+01,10.800
1.20600E+01,10.800
1.20640E+01,10.800
1.20680E+01,10.800
1.20720E+01,10.800
1.20760E+01,11.000
1.20800E+01,11.000
1.20840E+01,10.800
1.20880E+01,10.800
1.20920E+01,10.800
1.20960E+01,11.000
1.21000E+01,10.800
1.21040E+01,10.800
1.21080E+01,10.800
1.21120E+01,11.000
1.21160E+01,11.000
1.21200E+01,10.800
1.21240E+01,10.800
1.21280E+01,10.800
1.21320E+01,10.800
1.21360E+01,11.000
1.21400E+01,11.000
1.21440E+01,9.600
1.21480E+01,8.400
1.21520E+01,7.600
1.21560E+01,6.800
1.21600E+01,6.000
1.21640E+01,5.400
1.21680E+01,4.800
1.21720E+01,4.400
1.21760E+01,3.600
1.21800E+01,3.600
1.21840E+01,3.400
1.21880E+01,3.000
1.21920E+01,2.600
1.21960E+01,2.600
1.22000E+01,2.400
1.22040E+01,2.200
1.22080E+01,1.800
1.22120E+01,1.800
1.22160E+01,2.000
1.22200E+01,1.800
1.22240E+01,1.600
1.22280E+01,1.600
1.22320E+01,1.400
1.22360E+01,1.600
1.22400E+01,1.400
1.22440E+01,1.400
1.22480E+01,1.400
1.22520E+01,1.000
1.22560E+01,1.200
1.22600E+01,0.800
1.22640E+01,1.000
1.22680E+01,1.000
1.22720E+01,1.000
1.22760E+01,0.600
1.22800E+01,1.000
1.22840E+01,0.800
1.22880E+01,0.800
1.22920E+01,1.000
1.22960E+01,1.000
1.23000E+01,1.000
1.23040E+01,0.800
1.23080E+01,0.800
1.23120E+01,1.000
1.23160E+01,0.800
1.23200E+01,0.800
1.23240E+01,0.800
1.23280E+01,1.000
1.23320E+01,0.600
1.23360E+01,0.800
1.23400E+01,1.000
1.23440E+01,0.800
1.23480E+01,1.000
1.23520E+01,0.800
1.23560E+01,0.800
1.23600E+01,0.400
1.23640E+01,0.800
1.23680E+01,1.000
1.23720E+01,0.600
1.23760E+01,0.800
1.23800E+01,0.400
1.23840E+01,0.600
1.23880E+01,0.800
1.23920E+01,0.600
1.23960E+01,0.600
1.24000E+01,0.800
1.24040E+01,0.600
1.24080E+01,0.800
1.24120E+01,0.400
1.24160E+01,0.600
1.24200E+01,0.800
1.24240E+01,0.400
1.24280E+01,0.600
1.24320E+01,0.800
1.24360E+01,0.600
1.24400E+01,0.400
1.24440E+01,0.600
1.24480E+01,0.600
1.24520E+01,0.600
1.24560E+01,0.200
1.24600E+01,0.400
1.24640E+01,0.800
1.24680E+01,0.400
1.24720E+01,0.200
1.24760E+01,0.600
1.24800E+01,0.800
1.24840E+01,0.400
1.24880E+01,0.400
1.24920E+01,0.600
1.24960E+01,0.400
1.25000E+01,0.600
1.25040E+01,0.400
1.25080E+01,0.400
1.25120E+01,0.600
1.25160E+01,0.400
1.25200E+01,0.400
1.25240E+01,0.600
1.25280E+01,0.600
1.25320E+01,0.400
1.25360E+01,0.200
1.25400E+01,0.400
1.25440E+01,0.200
1.25480E+01,0.400
1.25520E+01,0.400
1.25560E+01,0.400
1.25600E+01,0.400
1.25640E+01,0.400
1.25680E+01,0.400
1.25720E+01,0.600
1.25760E+01,0.400
1.25800E+01,0.400
1.25840E+01,0.600
1.25880E+01,0.400
1.25920E+01,0.400
1.25960E+01,0.600
1.26000E+01,0.400
1.26040E+01,0.200
1.26080E+01,0.600
1.26120E+01,0.400
1.26160E+01,0.000
1.26200E+01,0.200
1.26240E+01,0.200
1.26280E+01,0.400
1.26320E+01,0.200
1.26360E+01,0.400
1.26400E+01,0.400
1.26440E+01,0.400
1.26480E+01,0.200
1.26520E+01,0.400
1.26560E+01,0.400
1.26600E+01,0.600
1.26640E+01,0.400
1.26680E+01,0.000
1.26720E+01,0.400
1.26760E+01,0.600
1.26800E+01,0.200
1.26840E+01,0.200
1.26880E+01,0.600
1.26920E+01,0.200
1.26960E+01,0.400
1.27000E+01,0.200
1.27040E+01,0.600
1.27080E+01,0.200
1.27120E+01,0.400
1.27160E+01,0.200
1.27200E+01,0.200
1.27240E+01,0.200
1.27280E+01,0.200
1.27320E+01,0.200
1.27360E+01,0.400
1.27400E+01,0.200
1.27440E+01,0.600
1.27480E+01,0.200
1.27520E+01,0.200
1.27560E+01,0.200
1.27600E+01,0.200
1.27640E+01,0.200
1.27680E+01,0.200
1.27720E+01,0.200
1.27760E+01,0.000
1.27800E+01,0.000
1.27840E+01,0.200
1.27880E+01,0.200
1.27920E+01,0.200
1.27960E+01,0.200
1.28000E+01,0.000
1.28040E+01,0.000
1.28080E+01,0.200
1.28120E+01,0.000
1.28160E+01,0.000
1.28200E+01,0.200
1.28240E+01,0.400
1.28280E+01,0.400
1.28320E+01,0.000
1.28360E+01,0.000
1.28400E+01,0.200
1.28440E+01,0.000
1.28480E+01,0.000
1.28520E+01,0.200
1.28560E+01,0.200
1.28600E+01,0.200
1.28640E+01,0.200
1.28680E+01,0.200
1.28720E+01,0.200
1.28760E+01,0.200
1.28800E+01,0.200
1.28840E+01,0.200
1.28880E+01,0.200
1.28920E+01,0.200
1.28960E+01,0.200
1.29000E+01,0.200
1.29040E+01,0.200
1.29080E+01,0.200
1.29120E+01,0.200
1.29160E+01,0.200
1.29200E+01,0.200
1.29240E+01,0.200
1.29280E+01,0.400
1.29320E+01,0.400
1.29360E+01,0.400
1.29400E+01,0.000
1.29440E+01,0.200
1.29480E+01,0.200
1.29520E+01,0.200
1.29560E+01,0.000
1.29600E+01,0.000
1.29640E+01,0.200
1.29680E+01,0.400
1.29720E+01,0.000
1.29760E+01,0.000
1.29800E+01,0.200
1.29840E+01,0.400
1.29880E+01,0.400
1.29920E+01,0.000
1.29960E+01,0.000
1.30000E+01,0.200
1.30040E+01,0.200
1.30080E+01,0.200
1.30120E+01,0.200
1.30160E+01,0.200
1.30200E+01,0.200
1.30240E+01,0.400
1.30280E+01,0.400
1.30320E+01,0.000
1.30360E+01,0.200
1.30400E+01,0.200
1.30440E+01,0.200
1.30480E+01,0.400
1.30520E+01,0.000
1.30560E+01,0.000
1.30600E+01,0.200
1.30640E+01,-0.200
1.30680E+01,0.200
1.30720E+01,0.200
1.30760E+01,0.200
1.30800E+01,0.000
1.30840E+01,0.200
1.30880E+01,0.000
1.30920E+01,-0.200
1.30960E+01,0.200
1.31000E+01,-0.200
1.31040E+01,0.200
1.31080E+01,-0.200
1.31120E+01,0.000
1.31160E+01,0.000
1.31200E+01,0.000
1.31240E+01,0.200
1.31280E+01,0.000
1.31320E+01,-0.200
1.31360E+01,0.200
1.31400E+01,-0.200
1.31440E+01,0.200
1.31480E+01,0.400
1.31520E+01,0.400
1.31560E+01,-0.200
1.31600E+01,0.000
1.31640E+01,0.000
1.31680E+01,0.400
1.31720E+01,0.200
1.31760E+01,0.000
1.31800E+01,0.000
1.31840E+01,0.200
1.31880E+01,0.200
1.31920E+01,0.000
1.31960E+01,0.000
1.32000E+01,0.200
1.32040E+01,0.200
1.32080E+01,0.000
1.32120E+01,0.200
1.32160E+01,-0.200
1.32200E+01,0.200
1.32240E+01,0.200
1.32280E+01,0.200
1.32320E+01,0.000
1.32360E+01,0.400
1.32400E+01,0.000
1.32440E+01,0.200
1.32480E+01,0.000
1.32520E+01,0.200
1.32560E+01,-0.200
1.32600E+01,0.000
1.32640E+01,-0.200
1.32680E+01,0.000
1.32720E+01,0.200
1.32760E+01,0.200
1.32800E+01,0.200
1.32840E+01,0.000
1.32880E+01,0.000
1.32920E+01,0.000
1.32960E+01,0.000
1.33000E+01,0.200
1.33040E+01,-0.200
1.33080E+01,-0.200
1.33120E+01,0.000
1.33160E+01,0.000
1.33200E+01,0.000
1.33240E+01,0.000
1.33280E+01,0.200
1.33320E+01,0.200
1.33360E+01,0.200
1.33400E+01,0.200
1.33440E+01,-0.200
1.33480E+01,0.000
1.33520E+01,0.200
1.33560E+01,0.000
1.33600E+01,0.000
1.33640E+01,0.000
1.33680E+01,-0.200
1.33720E+01,0.000
1.33760E+01,-0.200
1.33800E+01,0.200
1.33840E+01,0.200
1.33880E+01,0.200
1.33920E+01,0.000
1.33960E+01,0.000
1.34000E+01,0.000
1.34040E+01,0.400
1.34080E+01,0.200
1.34120E+01,0.000
1.34160E+01,0.000
1.34200E+01,0.000
1.34240E+01,0.000
1.34280E+01,0.000
1.34320E+01,0.000
1.34360E+01,0.000
1.34400E+01,0.000
1.34440E+01,0.000
1.34480E+01,0.000
1.34520E+01,-0.200
1.34560E+01,0.200
1.34600E+01,-0.200
1.34640E+01,0.000
1.34680E+01,-0.200
1.34720E+01,0.000
1.34760E+01,0.000
1.34800E+01,0.000
1.34840E+01,0.000
1.34880E+01,0.200
1.34920E+01,0.200
1.34960E+01,-0.200
1.35000E+01,-0.200
1.35040E+01,0.000
1.35080E+01,0.000
1.35120E+01,0.000
1.35160E+01,0.000
1.35200E+01,0.000
1.35240E+01,0.000
1.35280E+01,0.200
1.35320E+01,0.400
1.35360E+01,0.200
1.35400E+01,-0.200
1.35440E+01,0.000
1.35480E+01,0.000
1.35520E+01,0.000
1.35560E+01,0.200
1.35600E+01,0.000
1.35640E+01,0.000
1.35680E+01,0.000
1.35720E+01,0.000
1.35760E+01,-0.200
1.35800E+01,0.000
1.35840E+01,0.200
1.35880E+01,0.200
1.35920E+01,-0.200
1.35960E+01,-0.200
1.36000E+01,0.000
1.36040E+01,-0.200
1.36080E+01,0.000
1.36120E+01,0.000
1.36160E+01,0.000
1.36200E+01,0.000
1.36240E+01,0.000
1.36280E+01,0.000
1.36320E+01,0.000
1.36360E+01,0.000
1.36400E+01,0.000
1.36440E+01,0.000
1.36480E+01,0.000
1.36520E+01,-0.200
1.36560E+01,0.000
1.36600E+01,-0.200
1.36640E+01,0.000
1.36680E+01,-0.200
1.36720E+01,0.000
1.36760E+01,-0.200
1.36800E+01,0.000
1.36840E+01,0.000
1.36880E+01,0.000
1.36920E+01,0.000
1.36960E+01,0.000
1.37000E+01,0.000
1.37040E+01,0.000
1.37080E+01,0.000
1.37120E+01,0.000
1.37160E+01,0.000
1.37200E+01,0.200
1.37240E+01,0.000
1.37280E+01,0.200
1.37320E+01,0.000
1.37360E+01,-0.200
1.37400E+01,0.000
1.37440E+01,0.000
1.37480E+01,0.000
1.37520E+01,0.000
1.37560E+01,0.000
1.37600E+01,0.000
1.37640E+01,-0.200
1.37680E+01,0.000
1.37720E+01,-0.200
1.37760E+01,0.000
1.37800E+01,0.200
1.37840E+01,-0.200
1.37880E+01,-0.200
1.37920E+01,0.200
1.37960E+01,0.200
1.38000E+01,0.200
1.38040E+01,-0.200
1.38080E+01,0.000
1.38120E+01,0.000
1.38160E+01,0.000
1.38200E+01,-0.200
1.38240E+01,0.000
1.38280E+01,-0.200
1.38320E+01,0.000
1.38360E+01,0.200
1.38400E+01,0.200
1.38440E+01,-0.200
1.38480E+01,0.000
1.38520E+01,0.000
1.38560E+01,0.000
1.38600E+01,0.200
1.38640E+01,0.200
1.38680E+01,0.200
1.38720E+01,-0.200
1.38760E+01,-0.200
1.38800E+01,0.000
1.38840E+01,0.000
1.38880E+01,0.200
1.38920E+01,0.000
1.38960E+01,0.000
1.39000E+01,-0.200
1.39040E+01,-0.200
1.39080E+01,0.000
1.39120E+01,0.200
1.39160E+01,0.200
1.39200E+01,-0.200
1.39240E+01,0.000
1.39280E+01,0.000
1.39320E+01,0.000
1.39360E+01,0.000
1.39400E+01,0.200
1.39440E+01,-0.200
1.39480E+01,0.000
1.39520E+01,-0.200
1.39560E+01,-0.200
1.39600E+01,0.000
1.39640E+01,0.000
1.39680E+01,0.000
1.39720E+01,0.000
1.39760E+01,-0.200
1.39800E+01,0.000
1.39840E+01,0.000
1.39880E+01,0.000
1.39920E+01,0.000
1.39960E+01,0.000
1.40000E+01,0.000
1.40040E+01,-0.200
1.40080E+01,0.000
1.40120E+01,-0.200
1.40160E+01,0.000
1.40200E+01,-0.200
1.40240E+01,0.000
1.40280E+01,0.200
1.40320E+01,-0.200
1.40360E+01,0.000
1.40400E+01,0.000
1.40440E+01,0.000
1.40480E+01,0.000
1.40520E+01,0.000
1.40560E+01,0.000
1.40600E+01,0.000
1.40640E+01,0.000
1.40680E+01,0.000
1.40720E+01,0.000
1.40760E+01,-0.200
1.40800E+01,0.000
1.40840E+01,0.000
1.40880E+01,0.000
1.40920E+01,0.000
1.40960E+01,0.200
1.41000E+01,-0.200
1.41040E+01,-0.200
1.41080E+01,0.000
1.41120E+01,0.200
1.41160E+01,0.200
1.41200E+01,-0.200
1.41240E+01,-0.200
1.41280E+01,0.000
1.41320E+01,0.200
1.41360E+01,0.200
1.41400E+01,0.200
1.41440E+01,-0.200
1.41480E+01,-0.200
1.41520E+01,0.000
1.41560E+01,0.200
1.41600E+01,-0.200
1.41640E+01,0.000
1.41680E+01,0.000
1.41720E+01,0.000
1.41760E+01,0.000
1.41800E+01,-0.200
1.41840E+01,-0.200
1.41880E+01,0.000
1.41920E+01,-0.200
1.41960E+01,-0.200
1.42000E+01,0.000
1.42040E+01,0.200
1.42080E+01,-0.200
1.42120E+01,0.000
1.42160E+01,0.000
1.42200E+01,0.000
1.42240E+01,0.000
1.42280E+01,0.000
1.42320E+01,-0.200
1.42360E+01,0.000
1.42400E+01,0.000
1.42440E+01,0.000
1.42480E+01,0.000
1.42520E+01,0.000
1.42560E+01,-0.200
1.42600E+01,0.000
1.42640E+01,0.000
1.42680E+01,0.000
1.42720E+01,-0.200
1.42760E+01,0.000
1.42800E+01,-0.200
1.42840E+01,-0.200
1.42880E+01,0.000
1.42920E+01,-0.200
1.42960E+01,-0.200
1.43000E+01,0.000
1.43040E+01,-0.200
1.43080E+01,0.000
1.43120E+01,0.000
1.43160E+01,0.000
1.43200E+01,-0.200
1.43240E+01,-0.200
1.43280E+01,0.000
1.43320E+01,0.000
1.43360E+01,0.000
1.43400E+01,0.000
1.43440E+01,0.000
1.43480E+01,0.000
1.43520E+01,0.000
1.43560E+01,0.000
1.43600E+01,0.000
1.43640E+01,0.000
1.43680E+01,0.000
1.43720E+01,0.000
1.43760E+01,-0.200
1.43800E+01,0.000
1.43840E+01,0.000
1.43880E+01,0.000
1.43920E+01,0.000
1.43960E+01,-0.200
1.44000E+01,0.000
1.44040E+01,-0.200
1.44080E+01,0.000
1.44120E+01,0.200
1.44160E+01,-0.200
1.44200E+01,-0.200
1.44240E+01,0.000
1.44280E+01,-0.200
1.44320E+01,0.000
1.44360E+01,-0.200
1.44400E+01,0.000
1.44440E+01,-0.200
1.44480E+01,0.000
1.44520E+01,-0.200
1.44560E+01,0.000
1.44600E+01,-0.200
1.44640E+01,0.000
1.44680E+01,-0.200
1.44720E+01,-0.200
1.44760E+01,0.000
1.44800E+01,0.000
1.44840E+01,0.000
1.44880E+01,0.000
1.44920E+01,0.000
1.44960E+01,0.000
1.45000E+01,0.000
1.45040E+01,0.000
1.45080E+01,0.000
1.45120E+01,0.000
1.45160E+01,-0.200
1.45200E+01,-0.200
1.45240E+01,0.000
1.45280E+01,0.000
1.45320E+01,0.000
1.45360E+01,0.000
1.45400E+01,0.000
1.45440E+01,0.000
1.45480E+01,0.000
1.45520E+01,0.000
1.45560E+01,0.000
1.45600E+01,0.200
1.45640E+01,0.200
1.45680E+01,0.200
1.45720E+01,-0.200
1.45760E+01,0.000
1.45800E+01,0.000
1.45840E+01,0.000
1.45880E+01,0.200
1.45920E+01,0.200
1.45960E+01,0.200
1.46000E+01,-0.200
1.46040E+01,0.000
1.46080E+01,0.000
1.46120E+01,0.000
1.46160E+01,0.200
1.46200E+01,0.200
1.46240E+01,0.200
1.46280E+01,-0.200
1.46320E+01,-0.200
1.46360E+01,0.000
1.46400E+01,0.200
1.46440E+01,0.200
1.46480E+01,0.200
1.46520E+01,0.200
1.46560E+01,-0.200
1.46600E+01,-0.200
1.46640E+01,0.000
1.46680E+01,0.200
1.46720E+01,0.200
1.46760E+01,-0.200
1.46800E+01,-0.200
1.46840E+01,0.000
1.46880E+01,-0.200
1.46920E+01,-0.200
1.46960E+01,0.000
1.47000E+01,-0.200
1.47040E+01,0.000
1.47080E+01,-0.200
1.47120E+01,0.000
1.47160E+01,-0.200
1.47200E+01,0.000
1.47240E+01,0.000
1.47280E+01,0.000
1.47320E+01,0.000
1.47360E+01,0.000
1.47400E+01,0.000
1.47440E+01,0.000
1.47480E+01,-0.200
1.47520E+01,0.000
1.47560E+01,0.000
1.47600E+01,0.000
1.47640E+01,0.200
1.47680E+01,0.200
1.47720E+01,-0.200
1.47760E+01,-0.200
1.47800E+01,0.000
1.47840E+01,-0.200
1.47880E+01,-0.200
1.47920E+01,0.000
1.47960E+01,0.000
1.48000E+01,0.000
1.48040E+01,0.000
1.48080E+01,0.000
1.48120E+01,0.000
1.48160E+01,-0.200
1.48200E+01,0.000
1.48240E+01,0.000
1.48280E+01,0.000
1.48320E+01,0.000
1.48360E+01,0.000
1.48400E+01,0.000
1.48440E+01,0.000
1.48480E+01,0.000
1.48520E+01,0.000
1.48560E+01,0.000
1.48600E+01,0.000
1.48640E+01,-0.200
1.48680E+01,0.000
1.48720E+01,0.000
1.48760E+01,0.000
1.48800E+01,0.000
1.48840E+01,0.000
1.48880E+01,0.000
1.48920E+01,0.000
1.48960E+01,0.000
1.49000E+01,0.000
1.49040E+01,0.000
1.49080E+01,0.000
1.49120E+01,-0.200
1.49160E+01,0.000
1.49200E+01,0.000
1.49240E+01,0.000
1.49280E+01,-0.200
1.49320E+01,0.000
1.49360E+01,0.000
1.49400E+01,0.000
1.49440E+01,0.000
1.49480E+01,0.000
1.49520E+01,-0.200
1.49560E+01,0.000
1.49600E+01,0.000
1.49640E+01,0.000
1.49680E+01,0.000
1.49720E+01,0.000
1.49760E+01,0.200
1.49800E+01,0.200
1.49840E+01,-0.200
1.49880E+01,-0.200
1.49920E+01,0.000
1.49960E+01,-0.200
1.50000E+01,-0.200
1.50040E+01,0.000
1.50080E+01,-0.200
1.50120E+01,-0.200
1.50160E+01,0.000
1.50200E+01,0.000
1.50240E+01,0.000
1.50280E+01,0.000
1.50320E+01,0.000
1.50360E+01,0.000
1.50400E+01,0.000
1.50440E+01,0.000
1.50480E+01,0.000
1.50520E+01,0.000
1.50560E+01,0.000
1.50600E+01,0.000
1.50640E+01,0.000
1.50680E+01,-0.200
1.50720E+01,0.000
1.50760E+01,0.000
1.50800E+01,0.000
1.50840E+01,0.000
1.50880E+01,0.000
1.50920E+01,0.000
1.50960E+01,0.000
1.51000E+01,-0.200
1.51040E+01,0.000
1.51080E+01,-0.200
1.51120E+01,0.000
1.51160E+01,0.000
1.51200E+01,0.000
1.51240E+01,-0.200
1.51280E+01,0.000
1.51320E+01,0.000
1.51360E+01,0.000
1.51400E+01,-0.200
1.51440E+01,0.000
1.51480E+01,0.000
1.51520E+01,0.000
1.51560E+01,0.000
1.51600E+01,-0.200
1.51640E+01,0.000
1.51680E+01,0.000
1.51720E+01,0.000
1.51760E+01,0.000
1.51800E+01,0.000
1.51840E+01,0.000
1.51880E+01,0.000
1.51920E+01,0.000
1.51960E+01,0.000
1.52000E+01,0.000
1.52040E+01,0.000
1.52080E+01,0.000
1.52120E+01,-0.200
1.52160E+01,0.000
1.52200E+01,0.200
1.52240E+01,-0.200
1.52280E+01,0.000
1.52320E+01,0.000
1.52360E+01,0.000
1.52400E+01,0.000
1.52440E+01,-0.200
1.52480E+01,0.000
1.52520E+01,0.000
1.52560E+01,0.000
1.52600E+01,0.000
1.52640E+01,0.000
1.52680E+01,0.000
1.52720E+01,0.000
1.52760E+01,0.000
1.52800E+01,0.000
1.52840E+01,0.000
1.52880E+01,0.000
1.52920E+01,-0.200
1.52960E+01,0.000
1.53000E+01,0.200
1.53040E+01,-0.200
1.53080E+01,0.000
1.53120E+01,0.000
1.53160E+01,0.000
1.53200E+01,0.000
1.53240E+01,0.000
1.53280E+01,0.000
1.53320E+01,0.200
1.53360E+01,-0.200
1.53400E+01,0.000
1.53440E+01,0.000
1.53480E+01,0.000
1.53520E+01,0.000
1.53560E+01,0.000
1.53600E+01,0.000
1.53640E+01,0.000
1.53680E+01,0.200
1.53720E+01,0.200
1.53760E+01,-0.200
1.53800E+01,0.000
1.53840E+01,0.000
1.53880E+01,0.000
1.53920E+01,0.000
1.53960E+01,0.000
1.54000E+01,0.000
1.54040E+01,-0.200
1.54080E+01,-0.200
1.54120E+01,0.000
1.54160E+01,0.200
1.54200E+01,-0.200
1.54240E+01,-0.200
1.54280E+01,0.000
1.54320E+01,-0.200
1.54360E+01,0.000
1.54400E+01,0.200
1.54440E+01,0.200
1.54480E+01,0.200
1.54520E+01,0.200
1.54560E+01,-0.200
1.54600E+01,-0.200
1.54640E+01,0.000
1.54680E+01,0.200
1.54720E+01,-0.200
1.54760E+01,-0.200
1.54800E+01,0.000
1.54840E+01,-0.200
1.54880E+01,0.000
1.54920E+01,0.000
1.54960E+01,0.000
1.55000E+01,-0.200
1.55040E+01,0.000
1.55080E+01,-0.200
1.55120E+01,0.000
1.55160E+01,0.200
1.55200E+01,0.200
1.55240E+01,0.200
1.55280E+01,-0.200
1.55320E+01,-0.200
1.55360E+01,0.000
1.55400E+01,-0.200
1.55440E+01,0.000
1.55480E+01,0.200
1.55520E+01,-0.200
1.55560E+01,-0.200
1.55600E+01,0.000
1.55640E+01,0.000
1.55680E+01,0.000
1.55720E+01,0.000
1.55760E+01,-0.200
1.55800E+01,0.000
1.55840E+01,0.000
1.55880E+01,0.000
1.55920E+01,-0.200
1.55960E+01,-0.200
1.56000E+01,0.000
1.56040E+01,-0.200
1.56080E+01,0.000
1.56120E+01,0.000
1.56160E+01,0.000
1.56200E+01,-0.200
1.56240E+01,0.000
1.56280E+01,0.000
1.56320E+01,0.000
1.56360E+01,0.000
1.56400E+01,0.000
1.56440E+01,0.000
1.56480E+01,0.000
1.56520E+01,0.000
1.56560E+01,0.000
1.56600E+01,0.000
1.56640E+01,0.000
1.56680E+01,0.000
1.56720E+01,0.000
1.56760E+01,0.000
1.56800E+01,0.200
1.56840E+01,0.200
1.56880E+01,-0.200
1.56920E+01,-0.200
1.56960E+01,0.000
1.57000E+01,0.000
1.57040E+01,0.000
1.57080E+01,0.000
1.57120E+01,0.000
1.57160E+01,0.000
1.57200E+01,0.000
1.57240E+01,0.000
1.57280E+01,-0.200
1.57320E+01,0.000
1.57360E+01,0.000
1.57400E+01,0.000
1.57440E+01,0.000
1.57480E+01,0.000
1.57520E+01,0.000
1.57560E+01,0.000
1.57600E+01,0.200
1.57640E+01,-0.200
1.57680E+01,0.000
1.57720E+01,0.000
1.57760E+01,0.000
1.57800E+01,0.200
1.57840E+01,-0.200
1.57880E+01,0.000
1.57920E+01,0.000
1.57960E+01,0.000
1.58000E+01,0.200
1.58040E+01,-0.200
1.58080E+01,0.000
1.58120E+01,0.000
1.58160E+01,0.000
1.58200E+01,0.000
1.58240E+01,-0.200
1.58280E+01,0.000
1.58320E+01,0.000
1.58360E+01,0.000
1.58400E+01,0.000
1.58440E+01,-0.200
1.58480E+01,0.000
1.58520E+01,0.000
1.58560E+01,0.000
1.58600E+01,0.000
1.58640E+01,0.000
1.58680E+01,0.000
1.58720E+01,-0.200
1.58760E+01,0.000
1.58800E+01,0.200
1.58840E+01,-0.200
1.58880E+01,-0.200
1.58920E+01,0.000
1.58960E+01,0.200
1.59000E+01,-0.200
1.59040E+01,0.000
1.59080E+01,0.000
1.59120E+01,0.000
1.59160E+01,0.000
1.59200E+01,0.000
1.59240E+01,0.000
1.59280E+01,0.000
1.59320E+01,0.000
1.59360E+01,0.200
1.59400E+01,0.200
1.59440E+01,0.200
1.59480E+01,-0.200
1.59520E+01,0.000
1.59560E+01,0.000
1.59600E+01,0.000
1.59640E+01,-0.200
1.59680E+01,0.000
1.59720E+01,0.000
1.59760E+01,0.000
1.59800E+01,-0.200
1.59840E+01,-0.200
1.59880E+01,0.000
1.59920E+01,0.200
1.59960E+01,0.200
1.60000E+01,0.200
1.60040E+01,-0.200
1.60080E+01,0.000
1.60120E+01,0.000
1.60160E+01,0.000
1.60200E+01,0.000
1.60240E+01,0.000
1.60280E+01,0.000
1.60320E+01,0.000
1.60360E+01,-0.200
1.60400E+01,0.000
1.60440E+01,-0.200
1.60480E+01,0.000
1.60520E+01,0.200
1.60560E+01,-0.200
1.60600E+01,-0.200
1.60640E+01,0.000
1.60680E+01,-0.200
1.60720E+01,-0.200
1.60760E+01,0.000
1.60800E+01,0.000
1.60840E+01,0.000
1.60880E+01,0.000
1.60920E+01,-0.200
1.60960E+01,0.000
1.61000E+01,-0.200
1.61040E+01,0.000
1.61080E+01,0.200
1.61120E+01,-0.200
1.61160E+01,0.000
1.61200E+01,0.000
1.61240E+01,0.000
1.61280E+01,-0.200
1.61320E+01,0.000
1.61360E+01,-0.200
1.61400E+01,0.000
1.61440E+01,0.000
1.61480E+01,0.000
1.61520E+01,0.000
1.61560E+01,0.000
1.61600E+01,0.000
1.61640E+01,0.000
1.61680E+01,0.000
1.61720E+01,0.000
1.61760E+01,0.000
1.61800E+01,0.000
1.61840E+01,0.000
1.61880E+01,0.000
1.61920E+01,0.000
1.61960E+01,0.000
1.62000E+01,0.000
1.62040E+01,0.000
1.62080E+01,0.000
1.62120E+01,0.000
1.62160E+01,0.000
1.62200E+01,0.000
1.62240E+01,0.000
1.62280E+01,0.000
1.62320E+01,0.000
1.62360E+01,0.000
1.62400E+01,0.000
1.62440E+01,0.000
1.62480E+01,0.000
1.62520E+01,0.000
1.62560E+01,0.000
